Multi_33%Li2TiO3_33%
Wavelength = 1.54059 Ã… (Cu)
Angle	I(o)	I(b)
10.0	1882.0	1833.5
10.01	1829.0	1834.9
10.02	1760.0	1836.2
10.03	1838.0	1837.6
10.04	1895.0	1838.9
10.05	1939.0	1840.3
10.06	1941.0	1841.6
10.07	1944.0	1843.0
10.08	1905.0	1844.3
10.09	1893.0	1845.6
10.1	1838.0	1847.0
10.11	1891.0	1848.3
10.12	1832.0	1849.7
10.13	1840.0	1851.0
10.14	1821.0	1852.3
10.15	1880.0	1853.7
10.16	1929.0	1855.0
10.17	1855.0	1856.4
10.18	1807.0	1857.7
10.19	1870.0	1859.0
10.2	1961.0	1860.4
10.21	1938.0	1861.7
10.22	1865.0	1863.0
10.23	1893.0	1864.3
10.24	1922.0	1865.7
10.25	1936.0	1867.0
10.26	1898.0	1868.3
10.27	1903.0	1869.7
10.28	1939.0	1871.0
10.29	1917.0	1872.3
10.3	1846.0	1873.6
10.31	1864.0	1874.9
10.32	1863.0	1876.3
10.33	1856.0	1877.6
10.34	1935.0	1878.9
10.35	1881.0	1880.2
10.36	1895.0	1881.5
10.37	1926.0	1882.8
10.38	1920.0	1884.1
10.39	1901.0	1885.4
10.4	1872.0	1886.7
10.41	1920.0	1888.0
10.42	1926.0	1889.3
10.43	1947.0	1890.6
10.44	1955.0	1891.9
10.45	1961.0	1893.2
10.46	1950.0	1894.5
10.47	1985.0	1895.8
10.48	1948.0	1897.0
10.49	1937.0	1898.3
10.5	1946.0	1899.6
10.51	1909.0	1900.9
10.52	1832.0	1902.1
10.53	1864.0	1903.4
10.54	1907.0	1904.7
10.55	1917.0	1905.9
10.56	1918.0	1907.2
10.57	1877.0	1908.4
10.58	1869.0	1909.7
10.59	1873.0	1910.9
10.6	1948.0	1912.2
10.61	1972.0	1913.4
10.62	1959.0	1914.7
10.63	1893.0	1915.9
10.64	1930.0	1917.1
10.65	1946.0	1918.4
10.66	1873.0	1919.6
10.67	1884.0	1920.8
10.68	1943.0	1922.0
10.69	1930.0	1923.2
10.7	1989.0	1924.4
10.71	1922.0	1925.6
10.72	1907.0	1926.8
10.73	1884.0	1928.0
10.74	1960.0	1929.2
10.75	1981.0	1930.4
10.76	1971.0	1931.6
10.77	1954.0	1932.8
10.78	1939.0	1934.0
10.79	1913.0	1935.1
10.8	1913.0	1936.3
10.81	1959.0	1937.5
10.82	2017.0	1938.6
10.83	1970.0	1939.8
10.84	1956.0	1940.9
10.85	1961.0	1942.1
10.86	1995.0	1943.2
10.87	2024.0	1944.3
10.88	2008.0	1945.5
10.89	1968.0	1946.6
10.9	1920.0	1947.7
10.91	1905.0	1948.8
10.92	1956.0	1949.9
10.93	1943.0	1951.0
10.94	1935.0	1952.1
10.95	1885.0	1953.2
10.96	1956.0	1954.3
10.97	1982.0	1955.4
10.98	1989.0	1956.5
10.99	1967.0	1957.6
11.0	2016.0	1958.6
11.01	1972.0	1959.7
11.02	1941.0	1960.7
11.03	1956.0	1961.8
11.04	1955.0	1962.8
11.05	1986.0	1963.9
11.06	2022.0	1964.9
11.07	2018.0	1965.9
11.08	1950.0	1967.0
11.09	1969.0	1968.0
11.1	1949.0	1969.0
11.11	1953.0	1970.0
11.12	2001.0	1971.0
11.13	1985.0	1972.0
11.14	1989.0	1973.0
11.15	1962.0	1974.0
11.16	1969.0	1974.9
11.17	1975.0	1975.9
11.18	1941.0	1976.9
11.19	1957.0	1977.8
11.2	2030.0	1978.8
11.21	1994.0	1979.7
11.22	2004.0	1980.7
11.23	2048.0	1981.6
11.24	1994.0	1982.6
11.25	1967.0	1983.5
11.26	2001.0	1984.4
11.27	2002.0	1985.3
11.28	2031.0	1986.2
11.29	2009.0	1987.2
11.3	2004.0	1988.1
11.31	2002.0	1989.0
11.32	1980.0	1989.9
11.33	1941.0	1990.7
11.34	1981.0	1991.6
11.35	1996.0	1992.5
11.36	2042.0	1993.4
11.37	2034.0	1994.3
11.38	1958.0	1995.1
11.39	1941.0	1996.0
11.4	1997.0	1996.8
11.41	2053.0	1997.7
11.42	2008.0	1998.5
11.43	2031.0	1999.4
11.44	2028.0	2000.2
11.45	2006.0	2001.0
11.46	1992.0	2001.9
11.47	1963.0	2002.7
11.48	2016.0	2003.5
11.49	2077.0	2004.3
11.5	2024.0	2005.1
11.51	1945.0	2005.9
11.52	1946.0	2006.7
11.53	2007.0	2007.5
11.54	2028.0	2008.3
11.55	2001.0	2009.1
11.56	2018.0	2009.9
11.57	2058.0	2010.7
11.58	2075.0	2011.4
11.59	2047.0	2012.2
11.6	1979.0	2013.0
11.61	2050.0	2013.7
11.62	1976.0	2014.5
11.63	2073.0	2015.2
11.64	2045.0	2016.0
11.65	2033.0	2016.7
11.66	2055.0	2017.5
11.67	2039.0	2018.2
11.68	1955.0	2018.9
11.69	1995.0	2019.7
11.7	2074.0	2020.4
11.71	2085.0	2021.1
11.72	2037.0	2021.8
11.73	2051.0	2022.5
11.74	2086.0	2023.2
11.75	2055.0	2023.9
11.76	2073.0	2024.6
11.77	2019.0	2025.3
11.78	2037.0	2026.0
11.79	2006.0	2026.7
11.8	1983.0	2027.4
11.81	1973.0	2028.1
11.82	2047.0	2028.7
11.83	2075.0	2029.4
11.84	2097.0	2030.1
11.85	2007.0	2030.7
11.86	2030.0	2031.4
11.87	2090.0	2032.1
11.88	2063.0	2032.7
11.89	2048.0	2033.4
11.9	2000.0	2034.0
11.91	2060.0	2034.7
11.92	2074.0	2035.3
11.93	2069.0	2035.9
11.94	2088.0	2036.6
11.95	2065.0	2037.2
11.96	2068.0	2037.8
11.97	2043.0	2038.4
11.98	2022.0	2039.1
11.99	2026.0	2039.7
12.0	2037.0	2040.3
12.01	1989.0	2040.9
12.02	2067.0	2041.5
12.03	2053.0	2042.1
12.04	2087.0	2042.7
12.05	2058.0	2043.3
12.06	2052.0	2043.9
12.07	2062.0	2044.5
12.08	2072.0	2045.1
12.09	2047.0	2045.7
12.1	2095.0	2046.2
12.11	2139.0	2046.8
12.12	2115.0	2047.4
12.13	2088.0	2048.0
12.14	2038.0	2048.5
12.15	2079.0	2049.1
12.16	2108.0	2049.6
12.17	2109.0	2050.2
12.18	2093.0	2050.8
12.19	2091.0	2051.3
12.2	2090.0	2051.9
12.21	2150.0	2052.4
12.22	2132.0	2053.0
12.23	2081.0	2053.5
12.24	2087.0	2054.0
12.25	2054.0	2054.6
12.26	2099.0	2055.1
12.27	2085.0	2055.6
12.28	2098.0	2056.2
12.29	2113.0	2056.7
12.3	2134.0	2057.2
12.31	2136.0	2057.7
12.32	2119.0	2058.3
12.33	2060.0	2058.8
12.34	2040.0	2059.3
12.35	2092.0	2059.8
12.36	2112.0	2060.3
12.37	2141.0	2060.8
12.38	2130.0	2061.3
12.39	2102.0	2061.8
12.4	2039.0	2062.3
12.41	2052.0	2062.8
12.42	2055.0	2063.3
12.43	2079.0	2063.8
12.44	2064.0	2064.3
12.45	2119.0	2064.8
12.46	2135.0	2065.3
12.47	2128.0	2065.8
12.48	2138.0	2066.2
12.49	2099.0	2066.7
12.5	2059.0	2067.2
12.51	2125.0	2067.7
12.52	2122.0	2068.1
12.53	2122.0	2068.6
12.54	2094.0	2069.1
12.55	2067.0	2069.6
12.56	2070.0	2070.0
12.57	2090.0	2070.5
12.58	2117.0	2070.9
12.59	2143.0	2071.4
12.6	2110.0	2071.9
12.61	2062.0	2072.3
12.62	2067.0	2072.8
12.63	2124.0	2073.2
12.64	2107.0	2073.7
12.65	2085.0	2074.1
12.66	2128.0	2074.6
12.67	2092.0	2075.0
12.68	2106.0	2075.5
12.69	2087.0	2075.9
12.7	2129.0	2076.3
12.71	2098.0	2076.8
12.72	2114.0	2077.2
12.73	2129.0	2077.7
12.74	2085.0	2078.1
12.75	2112.0	2078.5
12.76	2115.0	2078.9
12.77	2112.0	2079.4
12.78	2075.0	2079.8
12.79	2105.0	2080.2
12.8	2089.0	2080.7
12.81	2082.0	2081.1
12.82	2086.0	2081.5
12.83	2141.0	2081.9
12.84	2154.0	2082.4
12.85	2132.0	2082.8
12.86	2136.0	2083.2
12.87	2127.0	2083.6
12.88	2116.0	2084.0
12.89	2133.0	2084.4
12.9	2190.0	2084.9
12.91	2193.0	2085.3
12.92	2080.0	2085.7
12.93	2107.0	2086.1
12.94	2103.0	2086.5
12.95	2077.0	2086.9
12.96	2120.0	2087.3
12.97	2136.0	2087.7
12.98	2127.0	2088.1
12.99	2110.0	2088.5
13.0	2122.0	2088.9
13.01	2069.0	2089.3
13.02	2125.0	2089.7
13.03	2160.0	2090.1
13.04	2189.0	2090.5
13.05	2122.0	2090.9
13.06	2068.0	2091.3
13.07	2057.0	2091.7
13.08	2110.0	2092.1
13.09	2138.0	2092.5
13.1	2121.0	2092.9
13.11	2105.0	2093.3
13.12	2163.0	2093.7
13.13	2145.0	2094.1
13.14	2160.0	2094.5
13.15	2142.0	2094.9
13.16	2123.0	2095.3
13.17	2142.0	2095.7
13.18	2159.0	2096.1
13.19	2134.0	2096.5
13.2	2112.0	2096.9
13.21	2130.0	2097.3
13.22	2155.0	2097.6
13.23	2191.0	2098.0
13.24	2241.0	2098.4
13.25	2167.0	2098.8
13.26	2164.0	2099.2
13.27	2175.0	2099.6
13.28	2170.0	2100.0
13.29	2143.0	2100.3
13.3	2107.0	2100.7
13.31	2144.0	2101.1
13.32	2135.0	2101.5
13.33	2169.0	2101.9
13.34	2159.0	2102.2
13.35	2121.0	2102.6
13.36	2131.0	2103.0
13.37	2181.0	2103.4
13.38	2185.0	2103.8
13.39	2145.0	2104.1
13.4	2078.0	2104.5
13.41	2113.0	2104.9
13.42	2167.0	2105.3
13.43	2172.0	2105.6
13.44	2135.0	2106.0
13.45	2184.0	2106.4
13.46	2205.0	2106.7
13.47	2232.0	2107.1
13.48	2209.0	2107.5
13.49	2166.0	2107.8
13.5	2175.0	2108.2
13.51	2164.0	2108.6
13.52	2216.0	2108.9
13.53	2216.0	2109.3
13.54	2221.0	2109.7
13.55	2184.0	2110.0
13.56	2151.0	2110.4
13.57	2141.0	2110.8
13.58	2139.0	2111.1
13.59	2141.0	2111.5
13.6	2173.0	2111.8
13.61	2214.0	2112.2
13.62	2214.0	2112.5
13.63	2143.0	2112.9
13.64	2126.0	2113.3
13.65	2169.0	2113.6
13.66	2156.0	2114.0
13.67	2185.0	2114.3
13.68	2222.0	2114.7
13.69	2154.0	2115.0
13.7	2136.0	2115.4
13.71	2152.0	2115.7
13.72	2149.0	2116.1
13.73	2143.0	2116.4
13.74	2163.0	2116.7
13.75	2130.0	2117.1
13.76	2134.0	2117.4
13.77	2151.0	2117.8
13.78	2158.0	2118.1
13.79	2157.0	2118.5
13.8	2199.0	2118.8
13.81	2224.0	2119.1
13.82	2233.0	2119.5
13.83	2230.0	2119.8
13.84	2210.0	2120.1
13.85	2190.0	2120.5
13.86	2236.0	2120.8
13.87	2211.0	2121.1
13.88	2195.0	2121.5
13.89	2200.0	2121.8
13.9	2265.0	2122.1
13.91	2256.0	2122.5
13.92	2231.0	2122.8
13.93	2213.0	2123.1
13.94	2144.0	2123.4
13.95	2168.0	2123.8
13.96	2234.0	2124.1
13.97	2229.0	2124.4
13.98	2186.0	2124.7
13.99	2253.0	2125.1
14.0	2243.0	2125.4
14.01	2238.0	2125.7
14.02	2252.0	2126.0
14.03	2238.0	2126.3
14.04	2193.0	2126.6
14.05	2174.0	2127.0
14.06	2166.0	2127.3
14.07	2183.0	2127.6
14.08	2236.0	2127.9
14.09	2195.0	2128.2
14.1	2170.0	2128.5
14.11	2166.0	2128.8
14.12	2165.0	2129.1
14.13	2185.0	2129.4
14.14	2195.0	2129.7
14.15	2220.0	2130.0
14.16	2200.0	2130.3
14.17	2257.0	2130.6
14.18	2262.0	2130.9
14.19	2251.0	2131.2
14.2	2236.0	2131.5
14.21	2225.0	2131.8
14.22	2179.0	2132.1
14.23	2181.0	2132.4
14.24	2197.0	2132.7
14.25	2191.0	2133.0
14.26	2170.0	2133.3
14.27	2179.0	2133.6
14.28	2158.0	2133.9
14.29	2251.0	2134.1
14.3	2240.0	2134.4
14.31	2186.0	2134.7
14.32	2172.0	2135.0
14.33	2181.0	2135.3
14.34	2209.0	2135.6
14.35	2195.0	2135.8
14.36	2198.0	2136.1
14.37	2171.0	2136.4
14.38	2213.0	2136.7
14.39	2211.0	2136.9
14.4	2188.0	2137.2
14.41	2176.0	2137.5
14.42	2174.0	2137.8
14.43	2198.0	2138.0
14.44	2220.0	2138.3
14.45	2228.0	2138.6
14.46	2255.0	2138.8
14.47	2268.0	2139.1
14.48	2268.0	2139.3
14.49	2225.0	2139.6
14.5	2199.0	2139.9
14.51	2227.0	2140.1
14.52	2235.0	2140.4
14.53	2240.0	2140.6
14.54	2253.0	2140.9
14.55	2231.0	2141.2
14.56	2257.0	2141.4
14.57	2218.0	2141.7
14.58	2152.0	2141.9
14.59	2192.0	2142.2
14.6	2185.0	2142.4
14.61	2185.0	2142.6
14.62	2192.0	2142.9
14.63	2202.0	2143.1
14.64	2204.0	2143.4
14.65	2226.0	2143.6
14.66	2256.0	2143.9
14.67	2232.0	2144.1
14.68	2198.0	2144.3
14.69	2208.0	2144.6
14.7	2186.0	2144.8
14.71	2163.0	2145.0
14.72	2180.0	2145.3
14.73	2129.0	2145.5
14.74	2131.0	2145.7
14.75	2200.0	2146.0
14.76	2206.0	2146.2
14.77	2191.0	2146.4
14.78	2152.0	2146.6
14.79	2190.0	2146.8
14.8	2167.0	2147.1
14.81	2163.0	2147.3
14.82	2211.0	2147.5
14.83	2256.0	2147.7
14.84	2235.0	2147.9
14.85	2195.0	2148.1
14.86	2201.0	2148.4
14.87	2165.0	2148.6
14.88	2164.0	2148.8
14.89	2188.0	2149.0
14.9	2196.0	2149.2
14.91	2197.0	2149.4
14.92	2183.0	2149.6
14.93	2117.0	2149.8
14.94	2127.0	2150.0
14.95	2154.0	2150.2
14.96	2160.0	2150.4
14.97	2157.0	2150.6
14.98	2170.0	2150.8
14.99	2161.0	2151.0
15.0	2179.0	2151.2
15.01	2194.0	2151.4
15.02	2223.0	2151.5
15.03	2216.0	2151.7
15.04	2170.0	2151.9
15.05	2169.0	2152.1
15.06	2203.0	2152.3
15.07	2217.0	2152.5
15.08	2182.0	2152.6
15.09	2221.0	2152.8
15.1	2248.0	2153.0
15.11	2184.0	2153.2
15.12	2162.0	2153.3
15.13	2175.0	2153.5
15.14	2182.0	2153.7
15.15	2186.0	2153.8
15.16	2196.0	2154.0
15.17	2225.0	2154.2
15.18	2207.0	2154.3
15.19	2139.0	2154.5
15.2	2125.0	2154.7
15.21	2144.0	2154.8
15.22	2163.0	2155.0
15.23	2189.0	2155.1
15.24	2186.0	2155.3
15.25	2156.0	2155.4
15.26	2145.0	2155.6
15.27	2183.0	2155.7
15.28	2147.0	2155.9
15.29	2131.0	2156.0
15.3	2176.0	2156.2
15.31	2167.0	2156.3
15.32	2186.0	2156.5
15.33	2225.0	2156.6
15.34	2198.0	2156.7
15.35	2200.0	2156.9
15.36	2214.0	2157.0
15.37	2185.0	2157.1
15.38	2216.0	2157.3
15.39	2195.0	2157.4
15.4	2171.0	2157.5
15.41	2207.0	2157.6
15.42	2220.0	2157.8
15.43	2202.0	2157.9
15.44	2155.0	2158.0
15.45	2127.0	2158.1
15.46	2112.0	2158.3
15.47	2163.0	2158.4
15.48	2177.0	2158.5
15.49	2178.0	2158.6
15.5	2163.0	2158.7
15.51	2160.0	2158.8
15.52	2168.0	2158.9
15.53	2172.0	2159.0
15.54	2193.0	2159.1
15.55	2183.0	2159.2
15.56	2134.0	2159.3
15.57	2127.0	2159.4
15.58	2191.0	2159.5
15.59	2173.0	2159.6
15.6	2154.0	2159.7
15.61	2143.0	2159.8
15.62	2174.0	2159.9
15.63	2188.0	2160.0
15.64	2207.0	2160.1
15.65	2196.0	2160.2
15.66	2179.0	2160.2
15.67	2136.0	2160.3
15.68	2144.0	2160.4
15.69	2171.0	2160.5
15.7	2188.0	2160.6
15.71	2202.0	2160.6
15.72	2216.0	2160.7
15.73	2206.0	2160.8
15.74	2205.0	2160.8
15.75	2218.0	2160.9
15.76	2201.0	2161.0
15.77	2192.0	2161.0
15.78	2193.0	2161.1
15.79	2146.0	2161.1
15.8	2179.0	2161.2
15.81	2200.0	2161.3
15.82	2158.0	2161.3
15.83	2170.0	2161.4
15.84	2188.0	2161.4
15.85	2172.0	2161.5
15.86	2136.0	2161.5
15.87	2120.0	2161.6
15.88	2139.0	2161.6
15.89	2183.0	2161.6
15.9	2155.0	2161.7
15.91	2126.0	2161.7
15.92	2130.0	2161.7
15.93	2142.0	2161.8
15.94	2169.0	2161.8
15.95	2162.0	2161.8
15.96	2115.0	2161.9
15.97	2109.0	2161.9
15.98	2160.0	2161.9
15.99	2155.0	2161.9
16.0	2139.0	2162.0
16.01	2143.0	2162.0
16.02	2117.0	2162.0
16.03	2143.0	2162.0
16.04	2167.0	2162.0
16.05	2154.0	2162.0
16.06	2170.0	2162.0
16.07	2190.0	2162.0
16.08	2213.0	2162.0
16.09	2210.0	2162.0
16.1	2181.0	2162.0
16.11	2182.0	2162.0
16.12	2164.0	2162.0
16.13	2124.0	2162.0
16.14	2124.0	2162.0
16.15	2172.0	2162.0
16.16	2212.0	2162.0
16.17	2189.0	2162.0
16.18	2142.0	2162.0
16.19	2128.0	2161.9
16.2	2169.0	2161.9
16.21	2204.0	2161.9
16.22	2172.0	2161.9
16.23	2150.0	2161.9
16.24	2149.0	2161.8
16.25	2167.0	2161.8
16.26	2185.0	2161.8
16.27	2165.0	2161.7
16.28	2155.0	2161.7
16.29	2174.0	2161.7
16.3	2147.0	2161.6
16.31	2084.0	2161.6
16.32	2099.0	2161.5
16.33	2170.0	2161.5
16.34	2204.0	2161.4
16.35	2201.0	2161.4
16.36	2180.0	2161.3
16.37	2156.0	2161.3
16.38	2134.0	2161.2
16.39	2113.0	2161.2
16.4	2121.0	2161.1
16.41	2107.0	2161.0
16.42	2130.0	2161.0
16.43	2110.0	2160.9
16.44	2091.0	2160.8
16.45	2107.0	2160.7
16.46	2115.0	2160.7
16.47	2145.0	2160.6
16.48	2108.0	2160.5
16.49	2089.0	2160.4
16.5	2107.0	2160.4
16.51	2128.0	2160.3
16.52	2164.0	2160.2
16.53	2165.0	2160.1
16.54	2140.0	2160.0
16.55	2112.0	2159.9
16.56	2093.0	2159.8
16.57	2099.0	2159.7
16.58	2110.0	2159.6
16.59	2126.0	2159.5
16.6	2147.0	2159.4
16.61	2133.0	2159.3
16.62	2146.0	2159.2
16.63	2132.0	2159.1
16.64	2105.0	2159.0
16.65	2098.0	2158.9
16.66	2151.0	2158.7
16.67	2148.0	2158.6
16.68	2122.0	2158.5
16.69	2152.0	2158.4
16.7	2133.0	2158.2
16.71	2120.0	2158.1
16.72	2109.0	2158.0
16.73	2100.0	2157.8
16.74	2100.0	2157.7
16.75	2100.0	2157.6
16.76	2096.0	2157.4
16.77	2088.0	2157.3
16.78	2109.0	2157.1
16.79	2139.0	2157.0
16.8	2155.0	2156.8
16.81	2133.0	2156.7
16.82	2117.0	2156.5
16.83	2117.0	2156.4
16.84	2119.0	2156.2
16.85	2120.0	2156.1
16.86	2129.0	2155.9
16.87	2153.0	2155.7
16.88	2129.0	2155.6
16.89	2133.0	2155.4
16.9	2145.0	2155.2
16.91	2118.0	2155.1
16.92	2114.0	2154.9
16.93	2107.0	2154.7
16.94	2093.0	2154.5
16.95	2094.0	2154.3
16.96	2097.0	2154.1
16.97	2094.0	2154.0
16.98	2073.0	2153.8
16.99	2059.0	2153.6
17.0	2083.0	2153.4
17.01	2129.0	2153.2
17.02	2155.0	2153.0
17.03	2137.0	2152.8
17.04	2125.0	2152.6
17.05	2176.0	2152.4
17.06	2189.0	2152.1
17.07	2137.0	2151.9
17.08	2096.0	2151.7
17.09	2122.0	2151.5
17.1	2142.0	2151.3
17.11	2144.0	2151.1
17.12	2146.0	2150.8
17.13	2124.0	2150.6
17.14	2101.0	2150.4
17.15	2108.0	2150.1
17.16	2144.0	2149.9
17.17	2112.0	2149.7
17.18	2081.0	2149.4
17.19	2089.0	2149.2
17.2	2087.0	2149.0
17.21	2085.0	2148.7
17.22	2087.0	2148.5
17.23	2104.0	2148.2
17.24	2115.0	2148.0
17.25	2107.0	2147.7
17.26	2106.0	2147.4
17.27	2123.0	2147.2
17.28	2113.0	2146.9
17.29	2098.0	2146.6
17.3	2106.0	2146.4
17.31	2097.0	2146.1
17.32	2055.0	2145.8
17.33	2060.0	2145.6
17.34	2075.0	2145.3
17.35	2062.0	2145.0
17.36	2078.0	2144.7
17.37	2094.0	2144.4
17.38	2088.0	2144.1
17.39	2068.0	2143.8
17.4	2079.0	2143.5
17.41	2067.0	2143.2
17.42	2039.0	2142.9
17.43	2067.0	2142.6
17.44	2108.0	2142.3
17.45	2113.0	2142.0
17.46	2086.0	2141.7
17.47	2096.0	2141.4
17.48	2098.0	2141.1
17.49	2080.0	2140.8
17.5	2086.0	2140.5
17.51	2088.0	2140.1
17.52	2094.0	2139.8
17.53	2114.0	2139.5
17.54	2094.0	2139.2
17.55	2058.0	2138.8
17.56	2057.0	2138.5
17.57	2088.0	2138.1
17.58	2135.0	2137.8
17.59	2136.0	2137.5
17.6	2122.0	2137.1
17.61	2140.0	2136.8
17.62	2134.0	2136.4
17.63	2129.0	2136.1
17.64	2130.0	2135.7
17.65	2116.0	2135.3
17.66	2116.0	2135.0
17.67	2109.0	2134.6
17.68	2068.0	2134.3
17.69	2062.0	2133.9
17.7	2109.0	2133.5
17.71	2108.0	2133.1
17.72	2116.0	2132.8
17.73	2110.0	2132.4
17.74	2072.0	2132.0
17.75	2053.0	2131.6
17.76	2079.0	2131.2
17.77	2153.0	2130.8
17.78	2147.0	2130.4
17.79	2105.0	2130.0
17.8	2129.0	2129.6
17.81	2154.0	2129.2
17.82	2149.0	2128.8
17.83	2127.0	2128.4
17.84	2107.0	2128.0
17.85	2130.0	2127.6
17.86	2166.0	2127.2
17.87	2165.0	2126.8
17.88	2142.0	2126.3
17.89	2098.0	2125.9
17.9	2088.0	2125.5
17.91	2109.0	2125.1
17.92	2104.0	2124.6
17.93	2142.0	2124.2
17.94	2167.0	2123.8
17.95	2186.0	2123.3
17.96	2183.0	2122.9
17.97	2149.0	2122.4
17.98	2183.0	2122.0
17.99	2195.0	2121.5
18.0	2192.0	2121.1
18.01	2190.0	2120.6
18.02	2165.0	2120.2
18.03	2163.0	2119.7
18.04	2171.0	2119.2
18.05	2143.0	2118.8
18.06	2145.0	2118.3
18.07	2159.0	2117.8
18.08	2171.0	2117.3
18.09	2191.0	2116.9
18.1	2203.0	2116.4
18.11	2212.0	2115.9
18.12	2214.0	2115.4
18.13	2222.0	2114.9
18.14	2249.0	2114.4
18.15	2243.0	2113.9
18.16	2242.0	2113.4
18.17	2272.0	2112.9
18.18	2228.0	2112.4
18.19	2228.0	2111.9
18.2	2320.0	2111.4
18.21	2340.0	2110.9
18.22	2300.0	2110.3
18.23	2329.0	2109.8
18.24	2358.0	2109.3
18.25	2366.0	2108.8
18.26	2370.0	2108.2
18.27	2363.0	2107.7
18.28	2384.0	2107.2
18.29	2428.0	2106.6
18.3	2458.0	2106.1
18.31	2437.0	2105.6
18.32	2407.0	2105.0
18.33	2434.0	2104.5
18.34	2472.0	2103.9
18.35	2516.0	2103.4
18.36	2558.0	2102.8
18.37	2607.0	2102.2
18.38	2665.0	2101.7
18.39	2719.0	2101.1
18.4	2822.0	2100.5
18.41	2913.0	2100.0
18.42	2925.0	2099.4
18.43	2945.0	2098.8
18.44	3020.0	2098.2
18.45	3112.0	2097.6
18.46	3211.0	2097.0
18.47	3344.0	2096.5
18.48	3508.0	2095.9
18.49	3687.0	2095.3
18.5	3854.0	2094.7
18.51	4051.0	2094.1
18.52	4282.0	2093.4
18.53	4571.0	2092.8
18.54	4858.0	2092.2
18.55	5231.0	2091.6
18.56	5708.0	2091.0
18.57	6138.0	2090.4
18.58	6531.0	2089.7
18.59	6902.0	2089.1
18.6	7190.0	2088.5
18.61	7378.0	2087.9
18.62	7307.0	2087.2
18.63	7033.0	2086.6
18.64	6658.0	2085.9
18.65	6142.0	2085.3
18.66	5578.0	2084.6
18.67	5006.0	2084.0
18.68	4472.0	2083.3
18.69	4056.0	2082.7
18.7	3607.0	2082.0
18.71	3194.0	2081.3
18.72	2948.0	2080.7
18.73	2816.0	2080.0
18.74	2690.0	2079.3
18.75	2590.0	2078.7
18.76	2495.0	2078.0
18.77	2418.0	2077.3
18.78	2361.0	2076.6
18.79	2299.0	2075.9
18.8	2283.0	2075.2
18.81	2278.0	2074.5
18.82	2283.0	2073.8
18.83	2290.0	2073.1
18.84	2231.0	2072.4
18.85	2203.0	2071.7
18.86	2191.0	2071.0
18.87	2165.0	2070.3
18.88	2133.0	2069.6
18.89	2152.0	2068.8
18.9	2210.0	2068.1
18.91	2227.0	2067.4
18.92	2202.0	2066.6
18.93	2162.0	2065.9
18.94	2160.0	2065.2
18.95	2210.0	2064.4
18.96	2191.0	2063.7
18.97	2146.0	2062.9
18.98	2172.0	2062.2
18.99	2183.0	2061.4
19.0	2121.0	2060.7
19.01	2084.0	2059.9
19.02	2045.0	2059.2
19.03	2059.0	2058.4
19.04	2100.0	2057.6
19.05	2116.0	2056.8
19.06	2168.0	2056.1
19.07	2139.0	2055.3
19.08	2096.0	2054.5
19.09	2074.0	2053.7
19.1	2093.0	2052.9
19.11	2113.0	2052.1
19.12	2102.0	2051.3
19.13	2094.0	2050.5
19.14	2079.0	2049.7
19.15	2036.0	2048.9
19.16	2030.0	2048.1
19.17	2045.0	2047.3
19.18	2044.0	2046.5
19.19	2047.0	2045.7
19.2	2057.0	2044.8
19.21	2023.0	2044.0
19.22	1997.0	2043.2
19.23	2040.0	2042.4
19.24	2076.0	2041.5
19.25	2082.0	2040.7
19.26	2065.0	2039.8
19.27	2079.0	2039.0
19.28	2065.0	2038.1
19.29	2021.0	2037.3
19.3	2007.0	2036.4
19.31	2064.0	2035.6
19.32	2075.0	2034.7
19.33	2040.0	2033.8
19.34	2054.0	2033.0
19.35	2059.0	2032.1
19.36	2028.0	2031.2
19.37	2030.0	2030.3
19.38	2055.0	2029.5
19.39	2043.0	2028.6
19.4	2025.0	2027.7
19.41	2026.0	2026.8
19.42	2061.0	2025.9
19.43	2069.0	2025.0
19.44	2033.0	2024.1
19.45	2039.0	2023.2
19.46	2079.0	2022.3
19.47	2043.0	2021.4
19.48	2005.0	2020.4
19.49	2051.0	2019.5
19.5	2077.0	2018.6
19.51	2078.0	2017.7
19.52	2030.0	2016.7
19.53	2018.0	2015.8
19.54	2039.0	2014.9
19.55	2039.0	2013.9
19.56	2019.0	2013.0
19.57	2009.0	2012.0
19.58	2025.0	2011.1
19.59	2012.0	2010.1
19.6	1965.0	2009.2
19.61	1933.0	2008.2
19.62	1998.0	2007.2
19.63	2040.0	2006.3
19.64	2082.0	2005.3
19.65	2085.0	2004.3
19.66	2066.0	2003.3
19.67	2020.0	2002.3
19.68	1974.0	2001.3
19.69	1970.0	2000.4
19.7	1979.0	1999.4
19.71	2005.0	1998.4
19.72	2012.0	1997.4
19.73	1994.0	1996.4
19.74	1977.0	1995.3
19.75	1958.0	1994.3
19.76	1968.0	1993.3
19.77	1975.0	1992.3
19.78	1963.0	1991.3
19.79	1955.0	1990.2
19.8	1961.0	1989.2
19.81	1980.0	1988.2
19.82	1971.0	1987.1
19.83	1992.0	1986.1
19.84	2024.0	1985.1
19.85	2016.0	1984.0
19.86	1989.0	1983.0
19.87	2016.0	1981.9
19.88	1999.0	1980.8
19.89	1989.0	1979.8
19.9	1988.0	1978.7
19.91	1974.0	1977.6
19.92	2001.0	1976.6
19.93	2018.0	1975.5
19.94	2010.0	1974.4
19.95	1979.0	1973.3
19.96	1977.0	1972.2
19.97	1931.0	1971.1
19.98	1973.0	1970.0
19.99	2032.0	1968.9
20.0	2004.0	1967.8
