Multi_33%Mn2O3_33%Li
Wavelength = 1.54059 Ã… (Cu)
Angle	I(o)	I(b)
10.0	1659.0	1708.2
10.01	1711.0	1709.3
10.02	1718.0	1710.4
10.03	1721.0	1711.5
10.04	1763.0	1712.6
10.05	1774.0	1713.7
10.06	1735.0	1714.8
10.07	1686.0	1715.9
10.08	1713.0	1717.0
10.09	1695.0	1718.1
10.1	1751.0	1719.2
10.11	1771.0	1720.3
10.12	1737.0	1721.4
10.13	1717.0	1722.5
10.14	1763.0	1723.6
10.15	1799.0	1724.7
10.16	1756.0	1725.7
10.17	1741.0	1726.8
10.18	1758.0	1727.9
10.19	1787.0	1729.0
10.2	1794.0	1730.1
10.21	1737.0	1731.2
10.22	1729.0	1732.3
10.23	1754.0	1733.4
10.24	1781.0	1734.5
10.25	1735.0	1735.6
10.26	1813.0	1736.7
10.27	1795.0	1737.8
10.28	1774.0	1738.9
10.29	1794.0	1740.0
10.3	1768.0	1741.1
10.31	1799.0	1742.2
10.32	1811.0	1743.2
10.33	1800.0	1744.3
10.34	1756.0	1745.4
10.35	1788.0	1746.5
10.36	1780.0	1747.6
10.37	1739.0	1748.7
10.38	1775.0	1749.8
10.39	1799.0	1750.9
10.4	1766.0	1751.9
10.41	1766.0	1753.0
10.42	1761.0	1754.1
10.43	1762.0	1755.2
10.44	1784.0	1756.3
10.45	1747.0	1757.4
10.46	1737.0	1758.4
10.47	1751.0	1759.5
10.48	1775.0	1760.6
10.49	1791.0	1761.7
10.5	1787.0	1762.7
10.51	1820.0	1763.8
10.52	1766.0	1764.9
10.53	1786.0	1766.0
10.54	1847.0	1767.0
10.55	1786.0	1768.1
10.56	1767.0	1769.2
10.57	1804.0	1770.3
10.58	1806.0	1771.3
10.59	1790.0	1772.4
10.6	1760.0	1773.5
10.61	1794.0	1774.5
10.62	1814.0	1775.6
10.63	1816.0	1776.6
10.64	1845.0	1777.7
10.65	1806.0	1778.8
10.66	1787.0	1779.8
10.67	1839.0	1780.9
10.68	1765.0	1781.9
10.69	1791.0	1783.0
10.7	1851.0	1784.0
10.71	1814.0	1785.1
10.72	1826.0	1786.2
10.73	1794.0	1787.2
10.74	1791.0	1788.2
10.75	1818.0	1789.3
10.76	1807.0	1790.3
10.77	1841.0	1791.4
10.78	1846.0	1792.4
10.79	1805.0	1793.5
10.8	1853.0	1794.5
10.81	1825.0	1795.5
10.82	1806.0	1796.6
10.83	1776.0	1797.6
10.84	1813.0	1798.7
10.85	1832.0	1799.7
10.86	1833.0	1800.7
10.87	1800.0	1801.7
10.88	1798.0	1802.8
10.89	1835.0	1803.8
10.9	1772.0	1804.8
10.91	1761.0	1805.8
10.92	1781.0	1806.9
10.93	1796.0	1807.9
10.94	1788.0	1808.9
10.95	1861.0	1809.9
10.96	1816.0	1810.9
10.97	1871.0	1811.9
10.98	1803.0	1813.0
10.99	1857.0	1814.0
11.0	1844.0	1815.0
11.01	1829.0	1816.0
11.02	1838.0	1817.0
11.03	1814.0	1818.0
11.04	1794.0	1819.0
11.05	1841.0	1820.0
11.06	1839.0	1821.0
11.07	1827.0	1822.0
11.08	1859.0	1822.9
11.09	1826.0	1823.9
11.1	1799.0	1824.9
11.11	1820.0	1825.9
11.12	1817.0	1826.9
11.13	1841.0	1827.9
11.14	1926.0	1828.9
11.15	1879.0	1829.8
11.16	1816.0	1830.8
11.17	1862.0	1831.8
11.18	1834.0	1832.7
11.19	1821.0	1833.7
11.2	1881.0	1834.7
11.21	1833.0	1835.6
11.22	1870.0	1836.6
11.23	1876.0	1837.6
11.24	1822.0	1838.5
11.25	1867.0	1839.5
11.26	1864.0	1840.4
11.27	1839.0	1841.4
11.28	1836.0	1842.3
11.29	1823.0	1843.3
11.3	1861.0	1844.2
11.31	1889.0	1845.2
11.32	1881.0	1846.1
11.33	1887.0	1847.1
11.34	1850.0	1848.0
11.35	1864.0	1848.9
11.36	1844.0	1849.9
11.37	1836.0	1850.8
11.38	1813.0	1851.7
11.39	1804.0	1852.7
11.4	1873.0	1853.6
11.41	1865.0	1854.5
11.42	1848.0	1855.4
11.43	1891.0	1856.4
11.44	1910.0	1857.3
11.45	1876.0	1858.2
11.46	1812.0	1859.1
11.47	1848.0	1860.0
11.48	1863.0	1860.9
11.49	1844.0	1861.8
11.5	1895.0	1862.7
11.51	1904.0	1863.6
11.52	1905.0	1864.5
11.53	1914.0	1865.4
11.54	1906.0	1866.3
11.55	1885.0	1867.2
11.56	1868.0	1868.1
11.57	1871.0	1869.0
11.58	1901.0	1869.9
11.59	1895.0	1870.8
11.6	1915.0	1871.7
11.61	1908.0	1872.5
11.62	1881.0	1873.4
11.63	1814.0	1874.3
11.64	1870.0	1875.2
11.65	1871.0	1876.0
11.66	1854.0	1876.9
11.67	1891.0	1877.8
11.68	1901.0	1878.6
11.69	1874.0	1879.5
11.7	1913.0	1880.4
11.71	1856.0	1881.2
11.72	1856.0	1882.1
11.73	1900.0	1882.9
11.74	1933.0	1883.8
11.75	1893.0	1884.6
11.76	1881.0	1885.5
11.77	1911.0	1886.3
11.78	1893.0	1887.2
11.79	1885.0	1888.0
11.8	1929.0	1888.8
11.81	1924.0	1889.7
11.82	1882.0	1890.5
11.83	1889.0	1891.3
11.84	1858.0	1892.2
11.85	1905.0	1893.0
11.86	1941.0	1893.8
11.87	1894.0	1894.6
11.88	1894.0	1895.5
11.89	1943.0	1896.3
11.9	1974.0	1897.1
11.91	1915.0	1897.9
11.92	1895.0	1898.7
11.93	1887.0	1899.5
11.94	1904.0	1900.3
11.95	1949.0	1901.1
11.96	1933.0	1901.9
11.97	1890.0	1902.7
11.98	1872.0	1903.5
11.99	1915.0	1904.3
12.0	1974.0	1905.1
12.01	2001.0	1905.9
12.02	1930.0	1906.7
12.03	1911.0	1907.5
12.04	1893.0	1908.3
12.05	1906.0	1909.0
12.06	1959.0	1909.8
12.07	1935.0	1910.6
12.08	1924.0	1911.4
12.09	1957.0	1912.1
12.1	1961.0	1912.9
12.11	1931.0	1913.7
12.12	1883.0	1914.4
12.13	1922.0	1915.2
12.14	1924.0	1916.0
12.15	1941.0	1916.7
12.16	1915.0	1917.5
12.17	1905.0	1918.2
12.18	1959.0	1919.0
12.19	1940.0	1919.7
12.2	1926.0	1920.5
12.21	1944.0	1921.2
12.22	1925.0	1921.9
12.23	1895.0	1922.7
12.24	1908.0	1923.4
12.25	1867.0	1924.1
12.26	1917.0	1924.9
12.27	1951.0	1925.6
12.28	1971.0	1926.3
12.29	1942.0	1927.0
12.3	1932.0	1927.8
12.31	1954.0	1928.5
12.32	1951.0	1929.2
12.33	1948.0	1929.9
12.34	1934.0	1930.6
12.35	1955.0	1931.3
12.36	1937.0	1932.0
12.37	1931.0	1932.7
12.38	1929.0	1933.4
12.39	1918.0	1934.1
12.4	1941.0	1934.8
12.41	1942.0	1935.5
12.42	1982.0	1936.2
12.43	1957.0	1936.9
12.44	1997.0	1937.6
12.45	2013.0	1938.2
12.46	1924.0	1938.9
12.47	1943.0	1939.6
12.48	1967.0	1940.3
12.49	1947.0	1940.9
12.5	1949.0	1941.6
12.51	1964.0	1942.3
12.52	1962.0	1942.9
12.53	1954.0	1943.6
12.54	1956.0	1944.3
12.55	1948.0	1944.9
12.56	1993.0	1945.6
12.57	1970.0	1946.2
12.58	1899.0	1946.9
12.59	1976.0	1947.5
12.6	1986.0	1948.1
12.61	1978.0	1948.8
12.62	2010.0	1949.4
12.63	1917.0	1950.1
12.64	1948.0	1950.7
12.65	1899.0	1951.3
12.66	1946.0	1951.9
12.67	1943.0	1952.6
12.68	2009.0	1953.2
12.69	1971.0	1953.8
12.7	1958.0	1954.4
12.71	1989.0	1955.0
12.72	1944.0	1955.7
12.73	1924.0	1956.3
12.74	1940.0	1956.9
12.75	1921.0	1957.5
12.76	1921.0	1958.1
12.77	1906.0	1958.7
12.78	1978.0	1959.3
12.79	1971.0	1959.9
12.8	1977.0	1960.4
12.81	1993.0	1961.0
12.82	1994.0	1961.6
12.83	1942.0	1962.2
12.84	1909.0	1962.8
12.85	1946.0	1963.4
12.86	1971.0	1963.9
12.87	1937.0	1964.5
12.88	1958.0	1965.1
12.89	1940.0	1965.6
12.9	1910.0	1966.2
12.91	1946.0	1966.8
12.92	1955.0	1967.3
12.93	1983.0	1967.9
12.94	1998.0	1968.4
12.95	1989.0	1969.0
12.96	1986.0	1969.5
12.97	2024.0	1970.1
12.98	2020.0	1970.6
12.99	1965.0	1971.1
13.0	1992.0	1971.7
13.01	1976.0	1972.2
13.02	1942.0	1972.7
13.03	2000.0	1973.2
13.04	2043.0	1973.8
13.05	1981.0	1974.3
13.06	1964.0	1974.8
13.07	2023.0	1975.3
13.08	2041.0	1975.8
13.09	2015.0	1976.3
13.1	2025.0	1976.9
13.11	1982.0	1977.4
13.12	2000.0	1977.9
13.13	1969.0	1978.4
13.14	2002.0	1978.9
13.15	2021.0	1979.3
13.16	2021.0	1979.8
13.17	1995.0	1980.3
13.18	1993.0	1980.8
13.19	1996.0	1981.3
13.2	2023.0	1981.8
13.21	2005.0	1982.2
13.22	1980.0	1982.7
13.23	2004.0	1983.2
13.24	2023.0	1983.6
13.25	2015.0	1984.1
13.26	2025.0	1984.6
13.27	1973.0	1985.0
13.28	1977.0	1985.5
13.29	2000.0	1985.9
13.3	1962.0	1986.4
13.31	1997.0	1986.8
13.32	1998.0	1987.3
13.33	2002.0	1987.7
13.34	1988.0	1988.2
13.35	1988.0	1988.6
13.36	1985.0	1989.0
13.37	1985.0	1989.5
13.38	1988.0	1989.9
13.39	2015.0	1990.3
13.4	2072.0	1990.7
13.41	2067.0	1991.1
13.42	2054.0	1991.6
13.43	2028.0	1992.0
13.44	2026.0	1992.4
13.45	2059.0	1992.8
13.46	2045.0	1993.2
13.47	2005.0	1993.6
13.48	1960.0	1994.0
13.49	1989.0	1994.4
13.5	2002.0	1994.8
13.51	2081.0	1995.1
13.52	2052.0	1995.5
13.53	2080.0	1995.9
13.54	2073.0	1996.3
13.55	2038.0	1996.7
13.56	2007.0	1997.0
13.57	2014.0	1997.4
13.58	2048.0	1997.8
13.59	2073.0	1998.1
13.6	2012.0	1998.5
13.61	2060.0	1998.9
13.62	2056.0	1999.2
13.63	2031.0	1999.6
13.64	2014.0	1999.9
13.65	2025.0	2000.3
13.66	2045.0	2000.6
13.67	2062.0	2000.9
13.68	2030.0	2001.3
13.69	2004.0	2001.6
13.7	2055.0	2001.9
13.71	2044.0	2002.3
13.72	1991.0	2002.6
13.73	2094.0	2002.9
13.74	2130.0	2003.2
13.75	2045.0	2003.6
13.76	2026.0	2003.9
13.77	2037.0	2004.2
13.78	2064.0	2004.5
13.79	2076.0	2004.8
13.8	2036.0	2005.1
13.81	2014.0	2005.4
13.82	2053.0	2005.7
13.83	2052.0	2006.0
13.84	2049.0	2006.3
13.85	2075.0	2006.6
13.86	2105.0	2006.8
13.87	2087.0	2007.1
13.88	2067.0	2007.4
13.89	2047.0	2007.7
13.9	2067.0	2008.0
13.91	2087.0	2008.2
13.92	2049.0	2008.5
13.93	2037.0	2008.8
13.94	2057.0	2009.0
13.95	2019.0	2009.3
13.96	2073.0	2009.5
13.97	2092.0	2009.8
13.98	2095.0	2010.0
13.99	2086.0	2010.3
14.0	2063.0	2010.5
14.01	2046.0	2010.8
14.02	2045.0	2011.0
14.03	2002.0	2011.3
14.04	2033.0	2011.5
14.05	2072.0	2011.7
14.06	2094.0	2012.0
14.07	2065.0	2012.2
14.08	2029.0	2012.4
14.09	2001.0	2012.6
14.1	2051.0	2012.8
14.11	2089.0	2013.1
14.12	2067.0	2013.3
14.13	2036.0	2013.5
14.14	2013.0	2013.7
14.15	2084.0	2013.9
14.16	2112.0	2014.1
14.17	2101.0	2014.3
14.18	2055.0	2014.5
14.19	2088.0	2014.7
14.2	2073.0	2014.9
14.21	2070.0	2015.1
14.22	2110.0	2015.2
14.23	2096.0	2015.4
14.24	2060.0	2015.6
14.25	2066.0	2015.8
14.26	2065.0	2015.9
14.27	2078.0	2016.1
14.28	2108.0	2016.3
14.29	2072.0	2016.5
14.3	2076.0	2016.6
14.31	2069.0	2016.8
14.32	2082.0	2016.9
14.33	2081.0	2017.1
14.34	2073.0	2017.2
14.35	2055.0	2017.4
14.36	2078.0	2017.5
14.37	2081.0	2017.7
14.38	2093.0	2017.8
14.39	2106.0	2018.0
14.4	2101.0	2018.1
14.41	2062.0	2018.2
14.42	2045.0	2018.4
14.43	2010.0	2018.5
14.44	2054.0	2018.6
14.45	2101.0	2018.7
14.46	2055.0	2018.9
14.47	2011.0	2019.0
14.48	2055.0	2019.1
14.49	2085.0	2019.2
14.5	2064.0	2019.3
14.51	2039.0	2019.4
14.52	2014.0	2019.5
14.53	2032.0	2019.6
14.54	2066.0	2019.7
14.55	2052.0	2019.8
14.56	2030.0	2019.9
14.57	2067.0	2020.0
14.58	2058.0	2020.1
14.59	2077.0	2020.2
14.6	2105.0	2020.3
14.61	2031.0	2020.3
14.62	2041.0	2020.4
14.63	2072.0	2020.5
14.64	2055.0	2020.6
14.65	2066.0	2020.6
14.66	2065.0	2020.7
14.67	2049.0	2020.8
14.68	2067.0	2020.8
14.69	2054.0	2020.9
14.7	2029.0	2020.9
14.71	1993.0	2021.0
14.72	2024.0	2021.1
14.73	2094.0	2021.1
14.74	2095.0	2021.2
14.75	2062.0	2021.2
14.76	2054.0	2021.2
14.77	2055.0	2021.3
14.78	2045.0	2021.3
14.79	2089.0	2021.3
14.8	2066.0	2021.4
14.81	2047.0	2021.4
14.82	2061.0	2021.4
14.83	2051.0	2021.5
14.84	2078.0	2021.5
14.85	2123.0	2021.5
14.86	2147.0	2021.5
14.87	2071.0	2021.5
14.88	2008.0	2021.5
14.89	2031.0	2021.6
14.9	2061.0	2021.6
14.91	2048.0	2021.6
14.92	2029.0	2021.6
14.93	2048.0	2021.6
14.94	2025.0	2021.6
14.95	2035.0	2021.6
14.96	2046.0	2021.6
14.97	2045.0	2021.5
14.98	2084.0	2021.5
14.99	2096.0	2021.5
15.0	2057.0	2021.5
15.01	2043.0	2021.5
15.02	2055.0	2021.5
15.03	2075.0	2021.4
15.04	2070.0	2021.4
15.05	2075.0	2021.4
15.06	2083.0	2021.3
15.07	2082.0	2021.3
15.08	2069.0	2021.3
15.09	2092.0	2021.2
15.1	2061.0	2021.2
15.11	2048.0	2021.1
15.12	2094.0	2021.1
15.13	2077.0	2021.0
15.14	2041.0	2021.0
15.15	2046.0	2020.9
15.16	2079.0	2020.9
15.17	2059.0	2020.8
15.18	2017.0	2020.8
15.19	2009.0	2020.7
15.2	2004.0	2020.6
15.21	1976.0	2020.6
15.22	1998.0	2020.5
15.23	2033.0	2020.4
15.24	2029.0	2020.3
15.25	2036.0	2020.3
15.26	2057.0	2020.2
15.27	2050.0	2020.1
15.28	2052.0	2020.0
15.29	2024.0	2019.9
15.3	2011.0	2019.8
15.31	2042.0	2019.7
15.32	2040.0	2019.6
15.33	2048.0	2019.5
15.34	2019.0	2019.4
15.35	1978.0	2019.3
15.36	1979.0	2019.2
15.37	2026.0	2019.1
15.38	2046.0	2019.0
15.39	2058.0	2018.9
15.4	2038.0	2018.8
15.41	2038.0	2018.7
15.42	2016.0	2018.6
15.43	2023.0	2018.4
15.44	1991.0	2018.3
15.45	2003.0	2018.2
15.46	2058.0	2018.1
15.47	2080.0	2017.9
15.48	2033.0	2017.8
15.49	2025.0	2017.7
15.5	2040.0	2017.5
15.51	2020.0	2017.4
15.52	2018.0	2017.3
15.53	2041.0	2017.1
15.54	2040.0	2017.0
15.55	2032.0	2016.8
15.56	2061.0	2016.7
15.57	2018.0	2016.5
15.58	2000.0	2016.4
15.59	2011.0	2016.2
15.6	2007.0	2016.0
15.61	2002.0	2015.9
15.62	2003.0	2015.7
15.63	1967.0	2015.6
15.64	1983.0	2015.4
15.65	2048.0	2015.2
15.66	2062.0	2015.0
15.67	2098.0	2014.9
15.68	2079.0	2014.7
15.69	2039.0	2014.5
15.7	2059.0	2014.3
15.71	2056.0	2014.1
15.72	2022.0	2014.0
15.73	2018.0	2013.8
15.74	2030.0	2013.6
15.75	2051.0	2013.4
15.76	2043.0	2013.2
15.77	2010.0	2013.0
15.78	2024.0	2012.8
15.79	2017.0	2012.6
15.8	2010.0	2012.4
15.81	2037.0	2012.2
15.82	2080.0	2012.0
15.83	2044.0	2011.8
15.84	2019.0	2011.6
15.85	2029.0	2011.3
15.86	1995.0	2011.1
15.87	1994.0	2010.9
15.88	2014.0	2010.7
15.89	2030.0	2010.5
15.9	2028.0	2010.2
15.91	2000.0	2010.0
15.92	2014.0	2009.8
15.93	2029.0	2009.6
15.94	2008.0	2009.3
15.95	2018.0	2009.1
15.96	2013.0	2008.8
15.97	1995.0	2008.6
15.98	2011.0	2008.4
15.99	2046.0	2008.1
16.0	2055.0	2007.9
16.01	2041.0	2007.6
16.02	2030.0	2007.4
16.03	2046.0	2007.1
16.04	2056.0	2006.9
16.05	2025.0	2006.6
16.06	1982.0	2006.3
16.07	1994.0	2006.1
16.08	1981.0	2005.8
16.09	1965.0	2005.6
16.1	1946.0	2005.3
16.11	1928.0	2005.0
16.12	1940.0	2004.8
16.13	1984.0	2004.5
16.14	2023.0	2004.2
16.15	2017.0	2003.9
16.16	1980.0	2003.6
16.17	1956.0	2003.4
16.18	1971.0	2003.1
16.19	1988.0	2002.8
16.2	1989.0	2002.5
16.21	1977.0	2002.2
16.22	1991.0	2001.9
16.23	2006.0	2001.6
16.24	2031.0	2001.3
16.25	2008.0	2001.0
16.26	1974.0	2000.7
16.27	2019.0	2000.4
16.28	1982.0	2000.1
16.29	1965.0	1999.8
16.3	2024.0	1999.5
16.31	2046.0	1999.2
16.32	2010.0	1998.9
16.33	1997.0	1998.6
16.34	2014.0	1998.3
16.35	2031.0	1997.9
16.36	2021.0	1997.6
16.37	2032.0	1997.3
16.38	2028.0	1997.0
16.39	2024.0	1996.7
16.4	1999.0	1996.3
16.41	1988.0	1996.0
16.42	2014.0	1995.7
16.43	2013.0	1995.3
16.44	2021.0	1995.0
16.45	2043.0	1994.7
16.46	1962.0	1994.3
16.47	1932.0	1994.0
16.48	1999.0	1993.6
16.49	1999.0	1993.3
16.5	1969.0	1992.9
16.51	1949.0	1992.6
16.52	1963.0	1992.2
16.53	2007.0	1991.9
16.54	2007.0	1991.5
16.55	1994.0	1991.2
16.56	1974.0	1990.8
16.57	1953.0	1990.4
16.58	1958.0	1990.1
16.59	1977.0	1989.7
16.6	1996.0	1989.4
16.61	1994.0	1989.0
16.62	1974.0	1988.6
16.63	2003.0	1988.2
16.64	1989.0	1987.9
16.65	1950.0	1987.5
16.66	1951.0	1987.1
16.67	1989.0	1986.7
16.68	2007.0	1986.4
16.69	1973.0	1986.0
16.7	1938.0	1985.6
16.71	1942.0	1985.2
16.72	1948.0	1984.8
16.73	1963.0	1984.4
16.74	1979.0	1984.0
16.75	1967.0	1983.6
16.76	1963.0	1983.2
16.77	1973.0	1982.8
16.78	1997.0	1982.4
16.79	1990.0	1982.0
16.8	1944.0	1981.6
16.81	1955.0	1981.2
16.82	2003.0	1980.8
16.83	2030.0	1980.4
16.84	2012.0	1980.0
16.85	1977.0	1979.6
16.86	1965.0	1979.2
16.87	1967.0	1978.7
16.88	1984.0	1978.3
16.89	2030.0	1977.9
16.9	1998.0	1977.5
16.91	1971.0	1977.1
16.92	1985.0	1976.6
16.93	1994.0	1976.2
16.94	2012.0	1975.8
16.95	2003.0	1975.3
16.96	1966.0	1974.9
16.97	1943.0	1974.5
16.98	1909.0	1974.0
16.99	1909.0	1973.6
17.0	1933.0	1973.2
17.01	1944.0	1972.7
17.02	1972.0	1972.3
17.03	2006.0	1971.8
17.04	2011.0	1971.4
17.05	2006.0	1970.9
17.06	2009.0	1970.5
17.07	2001.0	1970.0
17.08	2000.0	1969.6
17.09	1991.0	1969.1
17.1	1992.0	1968.7
17.11	1982.0	1968.2
17.12	1974.0	1967.7
17.13	1975.0	1967.3
17.14	1983.0	1966.8
17.15	1983.0	1966.4
17.16	1964.0	1965.9
17.17	1955.0	1965.4
17.18	1971.0	1964.9
17.19	1974.0	1964.5
17.2	1973.0	1964.0
17.21	1977.0	1963.5
17.22	1964.0	1963.0
17.23	1959.0	1962.6
17.24	1967.0	1962.1
17.25	1987.0	1961.6
17.26	1998.0	1961.1
17.27	1979.0	1960.6
17.28	1959.0	1960.1
17.29	1945.0	1959.7
17.3	1937.0	1959.2
17.31	1953.0	1958.7
17.32	1978.0	1958.2
17.33	1958.0	1957.7
17.34	1993.0	1957.2
17.35	2061.0	1956.7
17.36	2030.0	1956.2
17.37	1988.0	1955.7
17.38	1991.0	1955.2
17.39	1962.0	1954.7
17.4	1920.0	1954.2
17.41	1940.0	1953.6
17.42	1958.0	1953.1
17.43	1936.0	1952.6
17.44	1939.0	1952.1
17.45	1946.0	1951.6
17.46	1946.0	1951.1
17.47	1948.0	1950.6
17.48	1924.0	1950.0
17.49	1934.0	1949.5
17.5	1964.0	1949.0
17.51	1954.0	1948.5
17.52	1930.0	1947.9
17.53	1924.0	1947.4
17.54	1939.0	1946.9
17.55	1974.0	1946.3
17.56	1970.0	1945.8
17.57	1936.0	1945.3
17.58	1962.0	1944.7
17.59	1983.0	1944.2
17.6	1961.0	1943.7
17.61	1972.0	1943.1
17.62	1989.0	1942.6
17.63	1969.0	1942.0
17.64	1950.0	1941.5
17.65	1957.0	1940.9
17.66	1967.0	1940.4
17.67	1953.0	1939.8
17.68	1923.0	1939.3
17.69	1909.0	1938.7
17.7	1905.0	1938.2
17.71	1882.0	1937.6
17.72	1887.0	1937.1
17.73	1922.0	1936.5
17.74	1948.0	1936.0
17.75	1967.0	1935.4
17.76	1982.0	1934.8
17.77	1958.0	1934.3
17.78	1912.0	1933.7
17.79	1898.0	1933.1
17.8	1919.0	1932.6
17.81	1936.0	1932.0
17.82	1924.0	1931.4
17.83	1952.0	1930.8
17.84	1979.0	1930.3
17.85	1956.0	1929.7
17.86	1966.0	1929.1
17.87	1979.0	1928.5
17.88	1953.0	1927.9
17.89	1950.0	1927.4
17.9	1971.0	1926.8
17.91	1998.0	1926.2
17.92	1983.0	1925.6
17.93	1952.0	1925.0
17.94	1957.0	1924.4
17.95	1964.0	1923.8
17.96	1963.0	1923.2
17.97	1965.0	1922.6
17.98	1982.0	1922.1
17.99	2002.0	1921.5
18.0	1961.0	1920.9
18.01	1941.0	1920.3
18.02	1947.0	1919.7
18.03	1941.0	1919.1
18.04	1944.0	1918.4
18.05	1943.0	1917.8
18.06	1980.0	1917.2
18.07	1984.0	1916.6
18.08	1948.0	1916.0
18.09	1969.0	1915.4
18.1	2000.0	1914.8
18.11	1989.0	1914.2
18.12	1997.0	1913.6
18.13	2016.0	1912.9
18.14	1998.0	1912.3
18.15	1991.0	1911.7
18.16	1997.0	1911.1
18.17	1986.0	1910.5
18.18	2000.0	1909.8
18.19	2053.0	1909.2
18.2	2041.0	1908.6
18.21	2016.0	1908.0
18.22	2008.0	1907.3
18.23	2021.0	1906.7
18.24	1973.0	1906.1
18.25	1950.0	1905.4
18.26	1984.0	1904.8
18.27	2023.0	1904.2
18.28	2037.0	1903.5
18.29	2024.0	1902.9
18.3	2019.0	1902.3
18.31	2006.0	1901.6
18.32	1970.0	1901.0
18.33	1971.0	1900.3
18.34	2021.0	1899.7
18.35	2027.0	1899.0
18.36	2029.0	1898.4
18.37	2037.0	1897.7
18.38	2076.0	1897.1
18.39	2101.0	1896.4
18.4	2138.0	1895.8
18.41	2157.0	1895.1
18.42	2153.0	1894.5
18.43	2157.0	1893.8
18.44	2120.0	1893.2
18.45	2088.0	1892.5
18.46	2066.0	1891.8
18.47	2075.0	1891.2
18.48	2115.0	1890.5
18.49	2126.0	1889.9
18.5	2123.0	1889.2
18.51	2086.0	1888.5
18.52	2059.0	1887.9
18.53	2099.0	1887.2
18.54	2068.0	1886.5
18.55	2017.0	1885.9
18.56	2023.0	1885.2
18.57	1988.0	1884.5
18.58	1976.0	1883.8
18.59	2007.0	1883.2
18.6	2032.0	1882.5
18.61	1978.0	1881.8
18.62	1950.0	1881.1
18.63	1984.0	1880.4
18.64	2007.0	1879.8
18.65	1982.0	1879.1
18.66	1934.0	1878.4
18.67	1944.0	1877.7
18.68	1941.0	1877.0
18.69	1966.0	1876.3
18.7	2010.0	1875.6
18.71	1994.0	1875.0
18.72	1972.0	1874.3
18.73	1979.0	1873.6
18.74	1959.0	1872.9
18.75	1939.0	1872.2
18.76	1945.0	1871.5
18.77	1938.0	1870.8
18.78	1921.0	1870.1
18.79	1907.0	1869.4
18.8	1930.0	1868.7
18.81	1943.0	1868.0
18.82	1939.0	1867.3
18.83	1906.0	1866.6
18.84	1885.0	1865.9
18.85	1916.0	1865.2
18.86	1941.0	1864.5
18.87	1933.0	1863.8
18.88	1924.0	1863.0
18.89	1931.0	1862.3
18.9	1922.0	1861.6
18.91	1871.0	1860.9
18.92	1875.0	1860.2
18.93	1904.0	1859.5
18.94	1886.0	1858.8
18.95	1883.0	1858.0
18.96	1904.0	1857.3
18.97	1856.0	1856.6
18.98	1846.0	1855.9
18.99	1871.0	1855.2
19.0	1874.0	1854.4
19.01	1874.0	1853.7
19.02	1865.0	1853.0
19.03	1858.0	1852.3
19.04	1868.0	1851.5
19.05	1871.0	1850.8
19.06	1881.0	1850.1
19.07	1901.0	1849.4
19.08	1867.0	1848.6
19.09	1840.0	1847.9
19.1	1840.0	1847.2
19.11	1878.0	1846.4
19.12	1855.0	1845.7
19.13	1792.0	1845.0
19.14	1783.0	1844.2
19.15	1792.0	1843.5
19.16	1807.0	1842.7
19.17	1824.0	1842.0
19.18	1841.0	1841.3
19.19	1876.0	1840.5
19.2	1846.0	1839.8
19.21	1837.0	1839.0
19.22	1877.0	1838.3
19.23	1858.0	1837.5
19.24	1837.0	1836.8
19.25	1850.0	1836.0
19.26	1840.0	1835.3
19.27	1826.0	1834.5
19.28	1845.0	1833.8
19.29	1843.0	1833.0
19.3	1814.0	1832.3
19.31	1790.0	1831.5
19.32	1842.0	1830.8
19.33	1849.0	1830.0
19.34	1821.0	1829.3
19.35	1824.0	1828.5
19.36	1834.0	1827.8
19.37	1819.0	1827.0
19.38	1852.0	1826.2
19.39	1871.0	1825.5
19.4	1848.0	1824.7
19.41	1843.0	1823.9
19.42	1798.0	1823.2
19.43	1803.0	1822.4
19.44	1801.0	1821.7
19.45	1827.0	1820.9
19.46	1820.0	1820.1
19.47	1836.0	1819.3
19.48	1826.0	1818.6
19.49	1803.0	1817.8
19.5	1814.0	1817.0
19.51	1814.0	1816.3
19.52	1797.0	1815.5
19.53	1810.0	1814.7
19.54	1828.0	1813.9
19.55	1826.0	1813.2
19.56	1829.0	1812.4
19.57	1820.0	1811.6
19.58	1787.0	1810.8
19.59	1790.0	1810.1
19.6	1843.0	1809.3
19.61	1842.0	1808.5
19.62	1786.0	1807.7
19.63	1772.0	1806.9
19.64	1785.0	1806.1
19.65	1774.0	1805.4
19.66	1794.0	1804.6
19.67	1802.0	1803.8
19.68	1754.0	1803.0
19.69	1756.0	1802.2
19.7	1774.0	1801.4
19.71	1774.0	1800.6
19.72	1789.0	1799.8
19.73	1794.0	1799.1
19.74	1802.0	1798.3
19.75	1831.0	1797.5
19.76	1830.0	1796.7
19.77	1824.0	1795.9
19.78	1809.0	1795.1
19.79	1809.0	1794.3
19.8	1825.0	1793.5
19.81	1813.0	1792.7
19.82	1760.0	1791.9
19.83	1787.0	1791.1
19.84	1808.0	1790.3
19.85	1775.0	1789.5
19.86	1786.0	1788.7
19.87	1826.0	1787.9
19.88	1785.0	1787.1
19.89	1772.0	1786.3
19.9	1774.0	1785.5
19.91	1756.0	1784.7
19.92	1771.0	1783.9
19.93	1763.0	1783.1
19.94	1763.0	1782.3
19.95	1785.0	1781.5
19.96	1782.0	1780.7
19.97	1779.0	1779.8
19.98	1774.0	1779.0
19.99	1775.0	1778.2
20.0	1777.0	1777.4
