Multi_33%Mn2O3_33%Ti
Wavelength = 1.54059 Ã… (Cu)
Angle	I(o)	I(b)
10.0	1869.0	1834.7
10.01	1849.0	1835.3
10.02	1863.0	1835.9
10.03	1803.0	1836.5
10.04	1825.0	1837.2
10.05	1833.0	1837.8
10.06	1785.0	1838.4
10.07	1798.0	1839.0
10.08	1820.0	1839.7
10.09	1824.0	1840.3
10.1	1791.0	1840.9
10.11	1799.0	1841.6
10.12	1799.0	1842.2
10.13	1847.0	1842.8
10.14	1809.0	1843.4
10.15	1874.0	1844.1
10.16	1847.0	1844.7
10.17	1843.0	1845.3
10.18	1765.0	1846.0
10.19	1777.0	1846.6
10.2	1818.0	1847.2
10.21	1845.0	1847.9
10.22	1820.0	1848.5
10.23	1814.0	1849.1
10.24	1887.0	1849.7
10.25	1897.0	1850.4
10.26	1797.0	1851.0
10.27	1795.0	1851.6
10.28	1818.0	1852.3
10.29	1867.0	1852.9
10.3	1860.0	1853.6
10.31	1865.0	1854.2
10.32	1848.0	1854.8
10.33	1854.0	1855.5
10.34	1853.0	1856.1
10.35	1811.0	1856.7
10.36	1768.0	1857.4
10.37	1796.0	1858.0
10.38	1818.0	1858.7
10.39	1835.0	1859.3
10.4	1852.0	1859.9
10.41	1861.0	1860.6
10.42	1870.0	1861.2
10.43	1884.0	1861.9
10.44	1833.0	1862.5
10.45	1828.0	1863.2
10.46	1816.0	1863.8
10.47	1855.0	1864.4
10.48	1896.0	1865.1
10.49	1903.0	1865.7
10.5	1842.0	1866.4
10.51	1886.0	1867.0
10.52	1859.0	1867.7
10.53	1848.0	1868.4
10.54	1924.0	1869.0
10.55	1889.0	1869.7
10.56	1943.0	1870.3
10.57	1923.0	1871.0
10.58	1872.0	1871.6
10.59	1892.0	1872.3
10.6	1903.0	1872.9
10.61	1850.0	1873.6
10.62	1862.0	1874.3
10.63	1825.0	1874.9
10.64	1817.0	1875.6
10.65	1837.0	1876.3
10.66	1814.0	1876.9
10.67	1842.0	1877.6
10.68	1900.0	1878.3
10.69	1893.0	1878.9
10.7	1884.0	1879.6
10.71	1889.0	1880.3
10.72	1839.0	1881.0
10.73	1874.0	1881.6
10.74	1935.0	1882.3
10.75	1893.0	1883.0
10.76	1849.0	1883.7
10.77	1866.0	1884.4
10.78	1897.0	1885.0
10.79	1930.0	1885.7
10.8	1903.0	1886.4
10.81	1887.0	1887.1
10.82	1827.0	1887.8
10.83	1839.0	1888.5
10.84	1933.0	1889.2
10.85	1921.0	1889.9
10.86	1890.0	1890.6
10.87	1894.0	1891.2
10.88	1871.0	1891.9
10.89	1878.0	1892.6
10.9	1885.0	1893.3
10.91	1902.0	1894.1
10.92	1920.0	1894.8
10.93	1884.0	1895.5
10.94	1911.0	1896.2
10.95	1882.0	1896.9
10.96	1891.0	1897.6
10.97	1953.0	1898.3
10.98	1890.0	1899.0
10.99	1859.0	1899.7
11.0	1943.0	1900.5
11.01	1935.0	1901.2
11.02	1943.0	1901.9
11.03	1959.0	1902.6
11.04	1957.0	1903.4
11.05	1954.0	1904.1
11.06	1965.0	1904.8
11.07	1907.0	1905.5
11.08	1909.0	1906.3
11.09	1935.0	1907.0
11.1	1930.0	1907.8
11.11	1931.0	1908.5
11.12	1888.0	1909.2
11.13	1928.0	1910.0
11.14	1999.0	1910.7
11.15	1913.0	1911.5
11.16	1919.0	1912.2
11.17	1954.0	1913.0
11.18	1919.0	1913.7
11.19	1895.0	1914.5
11.2	1882.0	1915.3
11.21	1949.0	1916.0
11.22	1967.0	1916.8
11.23	1977.0	1917.6
11.24	1951.0	1918.3
11.25	1922.0	1919.1
11.26	1921.0	1919.9
11.27	1949.0	1920.6
11.28	1967.0	1921.4
11.29	1971.0	1922.2
11.3	1960.0	1923.0
11.31	1926.0	1923.8
11.32	1951.0	1924.5
11.33	1950.0	1925.3
11.34	1934.0	1926.1
11.35	1929.0	1926.9
11.36	1986.0	1927.7
11.37	1985.0	1928.5
11.38	1988.0	1929.3
11.39	1957.0	1930.1
11.4	1959.0	1930.9
11.41	1947.0	1931.7
11.42	1950.0	1932.5
11.43	1908.0	1933.3
11.44	1933.0	1934.1
11.45	1935.0	1934.9
11.46	1977.0	1935.7
11.47	1971.0	1936.5
11.48	2031.0	1937.3
11.49	2030.0	1938.1
11.5	1950.0	1939.0
11.51	1898.0	1939.8
11.52	1919.0	1940.6
11.53	1916.0	1941.4
11.54	1944.0	1942.2
11.55	1955.0	1943.1
11.56	1910.0	1943.9
11.57	1901.0	1944.7
11.58	1988.0	1945.5
11.59	1993.0	1946.3
11.6	1982.0	1947.2
11.61	1962.0	1948.0
11.62	1960.0	1948.8
11.63	1938.0	1949.7
11.64	1969.0	1950.5
11.65	1940.0	1951.3
11.66	1951.0	1952.2
11.67	1981.0	1953.0
11.68	1969.0	1953.8
11.69	1947.0	1954.7
11.7	1971.0	1955.5
11.71	2029.0	1956.3
11.72	2037.0	1957.2
11.73	1934.0	1958.0
11.74	1921.0	1958.8
11.75	1924.0	1959.7
11.76	1955.0	1960.5
11.77	2012.0	1961.4
11.78	2002.0	1962.2
11.79	1955.0	1963.0
11.8	2025.0	1963.9
11.81	2056.0	1964.7
11.82	2017.0	1965.6
11.83	2025.0	1966.4
11.84	1998.0	1967.3
11.85	1942.0	1968.1
11.86	1989.0	1968.9
11.87	2007.0	1969.8
11.88	2016.0	1970.6
11.89	2005.0	1971.5
11.9	1990.0	1972.3
11.91	1989.0	1973.2
11.92	1973.0	1974.0
11.93	1963.0	1974.9
11.94	1953.0	1975.7
11.95	1971.0	1976.6
11.96	1971.0	1977.4
11.97	2005.0	1978.3
11.98	1986.0	1979.1
11.99	1992.0	1979.9
12.0	2016.0	1980.8
12.01	2014.0	1981.6
12.02	2017.0	1982.5
12.03	2008.0	1983.3
12.04	2000.0	1984.2
12.05	2017.0	1985.0
12.06	2070.0	1985.9
12.07	2027.0	1986.7
12.08	2057.0	1987.6
12.09	2080.0	1988.4
12.1	2024.0	1989.2
12.11	2022.0	1990.1
12.12	2013.0	1990.9
12.13	2040.0	1991.8
12.14	1992.0	1992.6
12.15	2020.0	1993.5
12.16	2049.0	1994.3
12.17	2005.0	1995.1
12.18	1990.0	1996.0
12.19	1929.0	1996.8
12.2	1961.0	1997.7
12.21	2031.0	1998.5
12.22	1997.0	1999.3
12.23	2014.0	2000.2
12.24	1997.0	2001.0
12.25	2026.0	2001.8
12.26	2052.0	2002.7
12.27	2056.0	2003.5
12.28	1992.0	2004.3
12.29	2025.0	2005.2
12.3	2128.0	2006.0
12.31	2097.0	2006.8
12.32	2046.0	2007.7
12.33	2040.0	2008.5
12.34	2091.0	2009.3
12.35	1989.0	2010.1
12.36	1972.0	2011.0
12.37	2016.0	2011.8
12.38	2004.0	2012.6
12.39	2013.0	2013.4
12.4	2087.0	2014.2
12.41	2024.0	2015.1
12.42	2045.0	2015.9
12.43	2030.0	2016.7
12.44	2060.0	2017.5
12.45	2020.0	2018.3
12.46	2030.0	2019.1
12.47	2025.0	2019.9
12.48	1999.0	2020.7
12.49	2061.0	2021.5
12.5	2103.0	2022.4
12.51	2077.0	2023.2
12.52	2090.0	2024.0
12.53	2042.0	2024.8
12.54	2039.0	2025.6
12.55	2034.0	2026.4
12.56	2038.0	2027.2
12.57	2006.0	2027.9
12.58	2063.0	2028.7
12.59	2075.0	2029.5
12.6	2052.0	2030.3
12.61	1999.0	2031.1
12.62	1998.0	2031.9
12.63	2096.0	2032.7
12.64	2087.0	2033.4
12.65	2081.0	2034.2
12.66	2085.0	2035.0
12.67	2073.0	2035.8
12.68	2102.0	2036.5
12.69	2075.0	2037.3
12.7	2060.0	2038.1
12.71	2043.0	2038.9
12.72	2078.0	2039.6
12.73	2059.0	2040.4
12.74	2038.0	2041.1
12.75	2042.0	2041.9
12.76	2048.0	2042.6
12.77	2039.0	2043.4
12.78	2018.0	2044.2
12.79	2026.0	2044.9
12.8	2039.0	2045.6
12.81	2110.0	2046.4
12.82	2150.0	2047.1
12.83	2090.0	2047.9
12.84	2065.0	2048.6
12.85	2079.0	2049.3
12.86	2100.0	2050.1
12.87	2081.0	2050.8
12.88	2057.0	2051.5
12.89	2014.0	2052.2
12.9	2031.0	2053.0
12.91	2086.0	2053.7
12.92	2087.0	2054.4
12.93	2109.0	2055.1
12.94	2108.0	2055.8
12.95	2081.0	2056.5
12.96	2073.0	2057.2
12.97	2026.0	2057.9
12.98	2021.0	2058.6
12.99	2081.0	2059.3
13.0	2071.0	2060.0
13.01	2076.0	2060.7
13.02	2078.0	2061.4
13.03	2077.0	2062.1
13.04	2074.0	2062.7
13.05	2065.0	2063.4
13.06	2107.0	2064.1
13.07	2095.0	2064.7
13.08	2118.0	2065.4
13.09	2028.0	2066.1
13.1	2036.0	2066.7
13.11	2097.0	2067.4
13.12	2147.0	2068.0
13.13	2096.0	2068.7
13.14	2096.0	2069.3
13.15	2112.0	2070.0
13.16	2122.0	2070.6
13.17	2114.0	2071.3
13.18	2078.0	2071.9
13.19	2102.0	2072.5
13.2	2109.0	2073.1
13.21	2082.0	2073.8
13.22	2076.0	2074.4
13.23	2091.0	2075.0
13.24	2061.0	2075.6
13.25	2102.0	2076.2
13.26	2143.0	2076.8
13.27	2166.0	2077.4
13.28	2142.0	2078.0
13.29	2098.0	2078.6
13.3	2145.0	2079.2
13.31	2153.0	2079.8
13.32	2146.0	2080.3
13.33	2094.0	2080.9
13.34	2086.0	2081.5
13.35	2039.0	2082.1
13.36	2085.0	2082.6
13.37	2142.0	2083.2
13.38	2090.0	2083.7
13.39	2102.0	2084.3
13.4	2147.0	2084.8
13.41	2105.0	2085.4
13.42	2106.0	2085.9
13.43	2101.0	2086.5
13.44	2092.0	2087.0
13.45	2109.0	2087.5
13.46	2116.0	2088.0
13.47	2146.0	2088.6
13.48	2076.0	2089.1
13.49	2145.0	2089.6
13.5	2172.0	2090.1
13.51	2116.0	2090.6
13.52	2122.0	2091.1
13.53	2122.0	2091.6
13.54	2116.0	2092.1
13.55	2077.0	2092.6
13.56	2104.0	2093.0
13.57	2085.0	2093.5
13.58	2125.0	2094.0
13.59	2156.0	2094.5
13.6	2150.0	2094.9
13.61	2148.0	2095.4
13.62	2157.0	2095.9
13.63	2124.0	2096.3
13.64	2126.0	2096.8
13.65	2136.0	2097.2
13.66	2156.0	2097.7
13.67	2105.0	2098.1
13.68	2120.0	2098.5
13.69	2161.0	2099.0
13.7	2133.0	2099.4
13.71	2148.0	2099.8
13.72	2133.0	2100.2
13.73	2121.0	2100.7
13.74	2150.0	2101.1
13.75	2137.0	2101.5
13.76	2124.0	2101.9
13.77	2115.0	2102.3
13.78	2138.0	2102.7
13.79	2164.0	2103.1
13.8	2161.0	2103.5
13.81	2132.0	2103.9
13.82	2105.0	2104.3
13.83	2132.0	2104.6
13.84	2164.0	2105.0
13.85	2139.0	2105.4
13.86	2121.0	2105.7
13.87	2139.0	2106.1
13.88	2199.0	2106.5
13.89	2176.0	2106.8
13.9	2142.0	2107.2
13.91	2171.0	2107.5
13.92	2189.0	2107.9
13.93	2173.0	2108.2
13.94	2186.0	2108.6
13.95	2146.0	2108.9
13.96	2182.0	2109.2
13.97	2178.0	2109.5
13.98	2121.0	2109.9
13.99	2127.0	2110.2
14.0	2164.0	2110.5
14.01	2150.0	2110.8
14.02	2138.0	2111.1
14.03	2137.0	2111.4
14.04	2124.0	2111.7
14.05	2156.0	2112.0
14.06	2199.0	2112.3
14.07	2213.0	2112.6
14.08	2254.0	2112.9
14.09	2168.0	2113.2
14.1	2114.0	2113.5
14.11	2136.0	2113.7
14.12	2220.0	2114.0
14.13	2212.0	2114.3
14.14	2225.0	2114.5
14.15	2160.0	2114.8
14.16	2145.0	2115.1
14.17	2132.0	2115.3
14.18	2132.0	2115.6
14.19	2149.0	2115.8
14.2	2157.0	2116.1
14.21	2120.0	2116.3
14.22	2149.0	2116.5
14.23	2140.0	2116.8
14.24	2140.0	2117.0
14.25	2137.0	2117.2
14.26	2119.0	2117.4
14.27	2149.0	2117.7
14.28	2205.0	2117.9
14.29	2241.0	2118.1
14.3	2180.0	2118.3
14.31	2163.0	2118.5
14.32	2173.0	2118.7
14.33	2166.0	2118.9
14.34	2143.0	2119.1
14.35	2187.0	2119.3
14.36	2217.0	2119.5
14.37	2212.0	2119.7
14.38	2221.0	2119.8
14.39	2192.0	2120.0
14.4	2192.0	2120.2
14.41	2172.0	2120.4
14.42	2169.0	2120.5
14.43	2179.0	2120.7
14.44	2177.0	2120.9
14.45	2185.0	2121.0
14.46	2151.0	2121.2
14.47	2144.0	2121.3
14.48	2160.0	2121.5
14.49	2175.0	2121.6
14.5	2176.0	2121.7
14.51	2202.0	2121.9
14.52	2188.0	2122.0
14.53	2170.0	2122.1
14.54	2132.0	2122.3
14.55	2123.0	2122.4
14.56	2146.0	2122.5
14.57	2135.0	2122.6
14.58	2098.0	2122.7
14.59	2156.0	2122.8
14.6	2168.0	2123.0
14.61	2135.0	2123.1
14.62	2154.0	2123.2
14.63	2146.0	2123.3
14.64	2168.0	2123.3
14.65	2193.0	2123.4
14.66	2212.0	2123.5
14.67	2237.0	2123.6
14.68	2246.0	2123.7
14.69	2190.0	2123.8
14.7	2140.0	2123.8
14.71	2189.0	2123.9
14.72	2160.0	2124.0
14.73	2135.0	2124.0
14.74	2143.0	2124.1
14.75	2138.0	2124.1
14.76	2158.0	2124.2
14.77	2197.0	2124.3
14.78	2167.0	2124.3
14.79	2193.0	2124.3
14.8	2181.0	2124.4
14.81	2092.0	2124.4
14.82	2087.0	2124.5
14.83	2155.0	2124.5
14.84	2221.0	2124.5
14.85	2206.0	2124.5
14.86	2158.0	2124.6
14.87	2150.0	2124.6
14.88	2180.0	2124.6
14.89	2197.0	2124.6
14.9	2149.0	2124.6
14.91	2125.0	2124.6
14.92	2158.0	2124.6
14.93	2162.0	2124.6
14.94	2159.0	2124.6
14.95	2177.0	2124.6
14.96	2190.0	2124.6
14.97	2241.0	2124.6
14.98	2225.0	2124.6
14.99	2241.0	2124.6
15.0	2264.0	2124.5
15.01	2233.0	2124.5
15.02	2197.0	2124.5
15.03	2161.0	2124.4
15.04	2157.0	2124.4
15.05	2182.0	2124.4
15.06	2205.0	2124.3
15.07	2201.0	2124.3
15.08	2229.0	2124.2
15.09	2233.0	2124.2
15.1	2239.0	2124.1
15.11	2255.0	2124.1
15.12	2235.0	2124.0
15.13	2249.0	2124.0
15.14	2249.0	2123.9
15.15	2245.0	2123.8
15.16	2248.0	2123.8
15.17	2303.0	2123.7
15.18	2299.0	2123.6
15.19	2302.0	2123.5
15.2	2308.0	2123.4
15.21	2321.0	2123.4
15.22	2311.0	2123.3
15.23	2321.0	2123.2
15.24	2345.0	2123.1
15.25	2373.0	2123.0
15.26	2354.0	2122.9
15.27	2359.0	2122.8
15.28	2437.0	2122.7
15.29	2478.0	2122.6
15.3	2518.0	2122.4
15.31	2519.0	2122.3
15.32	2566.0	2122.2
15.33	2668.0	2122.1
15.34	2704.0	2122.0
15.35	2696.0	2121.8
15.36	2702.0	2121.7
15.37	2801.0	2121.6
15.38	2871.0	2121.4
15.39	2937.0	2121.3
15.4	2999.0	2121.2
15.41	3026.0	2121.0
15.42	3042.0	2120.9
15.43	3054.0	2120.7
15.44	3020.0	2120.6
15.45	2941.0	2120.4
15.46	2890.0	2120.3
15.47	2881.0	2120.1
15.48	2858.0	2119.9
15.49	2818.0	2119.8
15.5	2737.0	2119.6
15.51	2626.0	2119.4
15.52	2546.0	2119.2
15.53	2504.0	2119.1
15.54	2465.0	2118.9
15.55	2460.0	2118.7
15.56	2436.0	2118.5
15.57	2413.0	2118.3
15.58	2403.0	2118.1
15.59	2353.0	2117.9
15.6	2309.0	2117.7
15.61	2322.0	2117.5
15.62	2299.0	2117.3
15.63	2310.0	2117.1
15.64	2297.0	2116.9
15.65	2277.0	2116.7
15.66	2319.0	2116.5
15.67	2301.0	2116.3
15.68	2236.0	2116.1
15.69	2246.0	2115.8
15.7	2219.0	2115.6
15.71	2183.0	2115.4
15.72	2201.0	2115.2
15.73	2227.0	2114.9
15.74	2232.0	2114.7
15.75	2236.0	2114.5
15.76	2250.0	2114.2
15.77	2247.0	2114.0
15.78	2243.0	2113.7
15.79	2213.0	2113.5
15.8	2196.0	2113.2
15.81	2182.0	2113.0
15.82	2191.0	2112.7
15.83	2221.0	2112.5
15.84	2192.0	2112.2
15.85	2163.0	2111.9
15.86	2160.0	2111.7
15.87	2163.0	2111.4
15.88	2171.0	2111.1
15.89	2150.0	2110.9
15.9	2179.0	2110.6
15.91	2173.0	2110.3
15.92	2161.0	2110.0
15.93	2196.0	2109.7
15.94	2168.0	2109.4
15.95	2127.0	2109.2
15.96	2113.0	2108.9
15.97	2121.0	2108.6
15.98	2145.0	2108.3
15.99	2180.0	2108.0
16.0	2179.0	2107.7
16.01	2188.0	2107.4
16.02	2179.0	2107.1
16.03	2168.0	2106.7
16.04	2217.0	2106.4
16.05	2211.0	2106.1
16.06	2159.0	2105.8
16.07	2191.0	2105.5
16.08	2212.0	2105.2
16.09	2209.0	2104.8
16.1	2173.0	2104.5
16.11	2121.0	2104.2
16.12	2112.0	2103.8
16.13	2125.0	2103.5
16.14	2143.0	2103.2
16.15	2155.0	2102.8
16.16	2147.0	2102.5
16.17	2149.0	2102.1
16.18	2156.0	2101.8
16.19	2146.0	2101.5
16.2	2132.0	2101.1
16.21	2132.0	2100.7
16.22	2117.0	2100.4
16.23	2134.0	2100.0
16.24	2154.0	2099.7
16.25	2140.0	2099.3
16.26	2137.0	2098.9
16.27	2100.0	2098.6
16.28	2111.0	2098.2
16.29	2127.0	2097.8
16.3	2111.0	2097.5
16.31	2100.0	2097.1
16.32	2098.0	2096.7
16.33	2113.0	2096.3
16.34	2156.0	2095.9
16.35	2189.0	2095.6
16.36	2181.0	2095.2
16.37	2158.0	2094.8
16.38	2122.0	2094.4
16.39	2106.0	2094.0
16.4	2138.0	2093.6
16.41	2143.0	2093.2
16.42	2104.0	2092.8
16.43	2126.0	2092.4
16.44	2116.0	2092.0
16.45	2065.0	2091.6
16.46	2075.0	2091.2
16.47	2092.0	2090.7
16.48	2103.0	2090.3
16.49	2117.0	2089.9
16.5	2092.0	2089.5
16.51	2101.0	2089.1
16.52	2120.0	2088.6
16.53	2154.0	2088.2
16.54	2147.0	2087.8
16.55	2102.0	2087.3
16.56	2089.0	2086.9
16.57	2149.0	2086.5
16.58	2150.0	2086.0
16.59	2122.0	2085.6
16.6	2105.0	2085.2
16.61	2088.0	2084.7
16.62	2104.0	2084.3
16.63	2141.0	2083.8
16.64	2140.0	2083.4
16.65	2125.0	2082.9
16.66	2091.0	2082.5
16.67	2060.0	2082.0
16.68	2056.0	2081.5
16.69	2072.0	2081.1
16.7	2134.0	2080.6
16.71	2138.0	2080.2
16.72	2079.0	2079.7
16.73	2071.0	2079.2
16.74	2091.0	2078.7
16.75	2095.0	2078.3
16.76	2111.0	2077.8
16.77	2112.0	2077.3
16.78	2117.0	2076.8
16.79	2130.0	2076.4
16.8	2116.0	2075.9
16.81	2114.0	2075.4
16.82	2105.0	2074.9
16.83	2080.0	2074.4
16.84	2100.0	2073.9
16.85	2113.0	2073.4
16.86	2066.0	2072.9
16.87	2038.0	2072.4
16.88	2060.0	2071.9
16.89	2102.0	2071.4
16.9	2083.0	2070.9
16.91	2067.0	2070.4
16.92	2111.0	2069.9
16.93	2103.0	2069.4
16.94	2095.0	2068.9
16.95	2140.0	2068.4
16.96	2123.0	2067.9
16.97	2088.0	2067.3
16.98	2069.0	2066.8
16.99	2060.0	2066.3
17.0	2089.0	2065.8
17.01	2128.0	2065.2
17.02	2149.0	2064.7
17.03	2148.0	2064.2
17.04	2121.0	2063.7
17.05	2107.0	2063.1
17.06	2115.0	2062.6
17.07	2115.0	2062.1
17.08	2103.0	2061.5
17.09	2094.0	2061.0
17.1	2077.0	2060.4
17.11	2073.0	2059.9
17.12	2073.0	2059.3
17.13	2099.0	2058.8
17.14	2113.0	2058.2
17.15	2081.0	2057.7
17.16	2062.0	2057.1
17.17	2080.0	2056.6
17.18	2099.0	2056.0
17.19	2071.0	2055.5
17.2	2043.0	2054.9
17.21	2080.0	2054.3
17.22	2107.0	2053.8
17.23	2087.0	2053.2
17.24	2061.0	2052.6
17.25	2043.0	2052.1
17.26	2057.0	2051.5
17.27	2089.0	2050.9
17.28	2093.0	2050.4
17.29	2082.0	2049.8
17.3	2119.0	2049.2
17.31	2108.0	2048.6
17.32	2022.0	2048.0
17.33	2000.0	2047.5
17.34	2020.0	2046.9
17.35	2057.0	2046.3
17.36	2114.0	2045.7
17.37	2131.0	2045.1
17.38	2078.0	2044.5
17.39	2035.0	2043.9
17.4	2066.0	2043.3
17.41	2080.0	2042.7
17.42	2069.0	2042.1
17.43	2105.0	2041.5
17.44	2130.0	2040.9
17.45	2106.0	2040.3
17.46	2081.0	2039.7
17.47	2046.0	2039.1
17.48	2056.0	2038.5
17.49	2086.0	2037.9
17.5	2079.0	2037.3
17.51	2087.0	2036.7
17.52	2114.0	2036.0
17.53	2121.0	2035.4
17.54	2104.0	2034.8
17.55	2087.0	2034.2
17.56	2057.0	2033.6
17.57	2063.0	2032.9
17.58	2081.0	2032.3
17.59	2049.0	2031.7
17.6	2029.0	2031.1
17.61	2066.0	2030.4
17.62	2096.0	2029.8
17.63	2083.0	2029.2
17.64	2071.0	2028.5
17.65	2065.0	2027.9
17.66	2063.0	2027.3
17.67	2068.0	2026.6
17.68	2060.0	2026.0
17.69	2053.0	2025.3
17.7	2067.0	2024.7
17.71	2071.0	2024.0
17.72	2075.0	2023.4
17.73	2075.0	2022.8
17.74	2042.0	2022.1
17.75	2027.0	2021.5
17.76	2050.0	2020.8
17.77	2049.0	2020.1
17.78	2036.0	2019.5
17.79	2051.0	2018.8
17.8	2069.0	2018.2
17.81	2085.0	2017.5
17.82	2074.0	2016.9
17.83	2026.0	2016.2
17.84	2020.0	2015.5
17.85	2037.0	2014.9
17.86	2038.0	2014.2
17.87	2077.0	2013.5
17.88	2096.0	2012.9
17.89	2035.0	2012.2
17.9	1975.0	2011.5
17.91	2018.0	2010.8
17.92	2054.0	2010.2
17.93	2046.0	2009.5
17.94	2040.0	2008.8
17.95	2037.0	2008.1
17.96	2069.0	2007.4
17.97	2094.0	2006.8
17.98	2104.0	2006.1
17.99	2071.0	2005.4
18.0	2033.0	2004.7
18.01	2047.0	2004.0
18.02	2105.0	2003.3
18.03	2106.0	2002.6
18.04	2042.0	2001.9
18.05	2013.0	2001.3
18.06	2037.0	2000.6
18.07	2100.0	1999.9
18.08	2143.0	1999.2
18.09	2121.0	1998.5
18.1	2066.0	1997.8
18.11	2050.0	1997.1
18.12	2074.0	1996.4
18.13	2100.0	1995.7
18.14	2090.0	1995.0
18.15	2085.0	1994.3
18.16	2091.0	1993.5
18.17	2062.0	1992.8
18.18	2095.0	1992.1
18.19	2137.0	1991.4
18.2	2146.0	1990.7
18.21	2123.0	1990.0
18.22	2115.0	1989.3
18.23	2111.0	1988.6
18.24	2125.0	1987.8
18.25	2125.0	1987.1
18.26	2122.0	1986.4
18.27	2105.0	1985.7
18.28	2088.0	1985.0
18.29	2121.0	1984.2
18.3	2118.0	1983.5
18.31	2074.0	1982.8
18.32	2101.0	1982.1
18.33	2151.0	1981.3
18.34	2139.0	1980.6
18.35	2085.0	1979.9
18.36	2070.0	1979.2
18.37	2070.0	1978.4
18.38	2023.0	1977.7
18.39	1999.0	1977.0
18.4	2023.0	1976.2
18.41	2046.0	1975.5
18.42	2031.0	1974.7
18.43	2028.0	1974.0
18.44	2040.0	1973.3
18.45	2028.0	1972.5
18.46	1998.0	1971.8
18.47	2017.0	1971.0
18.48	2058.0	1970.3
18.49	2024.0	1969.6
18.5	1977.0	1968.8
18.51	1971.0	1968.1
18.52	1997.0	1967.3
18.53	2047.0	1966.6
18.54	2060.0	1965.8
18.55	2004.0	1965.1
18.56	1963.0	1964.3
18.57	2054.0	1963.6
18.58	2080.0	1962.8
18.59	1999.0	1962.1
18.6	2038.0	1961.3
18.61	2060.0	1960.5
18.62	2021.0	1959.8
18.63	2027.0	1959.0
18.64	2034.0	1958.3
18.65	2012.0	1957.5
18.66	2005.0	1956.7
18.67	2042.0	1956.0
18.68	2057.0	1955.2
18.69	2044.0	1954.4
18.7	2043.0	1953.7
18.71	2012.0	1952.9
18.72	1982.0	1952.1
18.73	2015.0	1951.4
18.74	2003.0	1950.6
18.75	1940.0	1949.8
18.76	1968.0	1949.1
18.77	2008.0	1948.3
18.78	2004.0	1947.5
18.79	2029.0	1946.8
18.8	2041.0	1946.0
18.81	2004.0	1945.2
18.82	1974.0	1944.4
18.83	1989.0	1943.6
18.84	1971.0	1942.9
18.85	1960.0	1942.1
18.86	2022.0	1941.3
18.87	2016.0	1940.5
18.88	1981.0	1939.8
18.89	2005.0	1939.0
18.9	2012.0	1938.2
18.91	2000.0	1937.4
18.92	1982.0	1936.6
18.93	1978.0	1935.8
18.94	1981.0	1935.0
18.95	1994.0	1934.3
18.96	2019.0	1933.5
18.97	2016.0	1932.7
18.98	2011.0	1931.9
18.99	2011.0	1931.1
19.0	1978.0	1930.3
19.01	1954.0	1929.5
19.02	1993.0	1928.7
19.03	1985.0	1927.9
19.04	1979.0	1927.1
19.05	1974.0	1926.3
19.06	1974.0	1925.6
19.07	1946.0	1924.8
19.08	1965.0	1924.0
19.09	2014.0	1923.2
19.1	2023.0	1922.4
19.11	2005.0	1921.6
19.12	1982.0	1920.8
19.13	1943.0	1920.0
19.14	1924.0	1919.2
19.15	1950.0	1918.4
19.16	1948.0	1917.6
19.17	1992.0	1916.8
19.18	1966.0	1916.0
19.19	1928.0	1915.2
19.2	1944.0	1914.4
19.21	1974.0	1913.5
19.22	1971.0	1912.7
19.23	1929.0	1911.9
19.24	1962.0	1911.1
19.25	1966.0	1910.3
19.26	1995.0	1909.5
19.27	1993.0	1908.7
19.28	1984.0	1907.9
19.29	1969.0	1907.1
19.3	1929.0	1906.3
19.31	1923.0	1905.5
19.32	1933.0	1904.6
19.33	1941.0	1903.8
19.34	1972.0	1903.0
19.35	1998.0	1902.2
19.36	1950.0	1901.4
19.37	1928.0	1900.6
19.38	1949.0	1899.8
19.39	1977.0	1899.0
19.4	1983.0	1898.1
19.41	1961.0	1897.3
19.42	1940.0	1896.5
19.43	1917.0	1895.7
19.44	1896.0	1894.9
19.45	1883.0	1894.0
19.46	1906.0	1893.2
19.47	1953.0	1892.4
19.48	1973.0	1891.6
19.49	1973.0	1890.8
19.5	1914.0	1889.9
19.51	1892.0	1889.1
19.52	1903.0	1888.3
19.53	1929.0	1887.5
19.54	1918.0	1886.7
19.55	1911.0	1885.8
19.56	1948.0	1885.0
19.57	1949.0	1884.2
19.58	1913.0	1883.4
19.59	1902.0	1882.5
19.6	1921.0	1881.7
19.61	1940.0	1880.9
19.62	1957.0	1880.1
19.63	1938.0	1879.2
19.64	1940.0	1878.4
19.65	1956.0	1877.6
19.66	1904.0	1876.8
19.67	1888.0	1875.9
19.68	1902.0	1875.1
19.69	1894.0	1874.3
19.7	1882.0	1873.4
19.71	1926.0	1872.6
19.72	1953.0	1871.8
19.73	1919.0	1871.0
19.74	1890.0	1870.1
19.75	1920.0	1869.3
19.76	1917.0	1868.5
19.77	1929.0	1867.6
19.78	1949.0	1866.8
19.79	1875.0	1866.0
19.8	1833.0	1865.1
19.81	1836.0	1864.3
19.82	1844.0	1863.5
19.83	1876.0	1862.6
19.84	1920.0	1861.8
19.85	1931.0	1861.0
19.86	1920.0	1860.1
19.87	1876.0	1859.3
19.88	1875.0	1858.5
19.89	1876.0	1857.6
19.9	1868.0	1856.8
19.91	1891.0	1856.0
19.92	1899.0	1855.1
19.93	1898.0	1854.3
19.94	1904.0	1853.5
19.95	1892.0	1852.6
19.96	1864.0	1851.8
19.97	1830.0	1851.0
19.98	1835.0	1850.1
19.99	1908.0	1849.3
20.0	1967.0	1848.5
