Offstoi_LiMnTiO4_100
Wavelength = 1.54059 Ã… (Cu)
10.0	1743.0
10.01	1722.0
10.02	1729.0
10.03	1729.0
10.04	1704.0
10.05	1647.0
10.06	1702.0
10.07	1742.0
10.08	1737.0
10.09	1768.0
10.1	1758.0
10.11	1717.0
10.12	1708.0
10.13	1695.0
10.14	1693.0
10.15	1697.0
10.16	1690.0
10.17	1749.0
10.18	1717.0
10.19	1700.0
10.2	1730.0
10.21	1739.0
10.22	1744.0
10.23	1736.0
10.24	1719.0
10.25	1716.0
10.26	1768.0
10.27	1741.0
10.28	1749.0
10.29	1701.0
10.3	1716.0
10.31	1761.0
10.32	1758.0
10.33	1728.0
10.34	1641.0
10.35	1685.0
10.36	1679.0
10.37	1705.0
10.38	1714.0
10.39	1755.0
10.4	1740.0
10.41	1788.0
10.42	1722.0
10.43	1733.0
10.44	1757.0
10.45	1700.0
10.46	1726.0
10.47	1750.0
10.48	1832.0
10.49	1735.0
10.5	1695.0
10.51	1716.0
10.52	1733.0
10.53	1787.0
10.54	1771.0
10.55	1699.0
10.56	1726.0
10.57	1807.0
10.58	1778.0
10.59	1755.0
10.6	1770.0
10.61	1755.0
10.62	1781.0
10.63	1762.0
10.64	1737.0
10.65	1723.0
10.66	1739.0
10.67	1724.0
10.68	1753.0
10.69	1765.0
10.7	1761.0
10.71	1797.0
10.72	1797.0
10.73	1773.0
10.74	1791.0
10.75	1747.0
10.76	1788.0
10.77	1804.0
10.78	1762.0
10.79	1743.0
10.8	1790.0
10.81	1810.0
10.82	1783.0
10.83	1801.0
10.84	1856.0
10.85	1812.0
10.86	1800.0
10.87	1758.0
10.88	1798.0
10.89	1831.0
10.9	1785.0
10.91	1788.0
10.92	1753.0
10.93	1763.0
10.94	1808.0
10.95	1777.0
10.96	1758.0
10.97	1778.0
10.98	1807.0
10.99	1778.0
11.0	1835.0
11.01	1828.0
11.02	1845.0
11.03	1856.0
11.04	1833.0
11.05	1803.0
11.06	1828.0
11.07	1851.0
11.08	1854.0
11.09	1815.0
11.1	1809.0
11.11	1781.0
11.12	1776.0
11.13	1834.0
11.14	1809.0
11.15	1856.0
11.16	1837.0
11.17	1872.0
11.18	1911.0
11.19	1860.0
11.2	1863.0
11.21	1767.0
11.22	1832.0
11.23	1838.0
11.24	1787.0
11.25	1773.0
11.26	1771.0
11.27	1807.0
11.28	1849.0
11.29	1861.0
11.3	1834.0
11.31	1834.0
11.32	1835.0
11.33	1821.0
11.34	1843.0
11.35	1890.0
11.36	1818.0
11.37	1849.0
11.38	1813.0
11.39	1850.0
11.4	1871.0
11.41	1826.0
11.42	1831.0
11.43	1880.0
11.44	1872.0
11.45	1831.0
11.46	1792.0
11.47	1828.0
11.48	1838.0
11.49	1827.0
11.5	1848.0
11.51	1838.0
11.52	1821.0
11.53	1879.0
11.54	1826.0
11.55	1819.0
11.56	1866.0
11.57	1907.0
11.58	1859.0
11.59	1836.0
11.6	1820.0
11.61	1825.0
11.62	1832.0
11.63	1901.0
11.64	1858.0
11.65	1867.0
11.66	1929.0
11.67	1900.0
11.68	1858.0
11.69	1855.0
11.7	1831.0
11.71	1825.0
11.72	1847.0
11.73	1853.0
11.74	1890.0
11.75	1860.0
11.76	1914.0
11.77	1871.0
11.78	1866.0
11.79	1891.0
11.8	1754.0
11.81	1867.0
11.82	1865.0
11.83	1898.0
11.84	1921.0
11.85	1894.0
11.86	1825.0
11.87	1824.0
11.88	1862.0
11.89	1857.0
11.9	1882.0
11.91	1919.0
11.92	1847.0
11.93	1804.0
11.94	1873.0
11.95	1877.0
11.96	1845.0
11.97	1840.0
11.98	1885.0
11.99	1884.0
12.0	1876.0
12.01	1855.0
12.02	1835.0
12.03	1884.0
12.04	1859.0
12.05	1902.0
12.06	1935.0
12.07	1889.0
12.08	1928.0
12.09	1916.0
12.1	1887.0
12.11	1909.0
12.12	1901.0
12.13	1878.0
12.14	1868.0
12.15	1864.0
12.16	1952.0
12.17	1925.0
12.18	1918.0
12.19	1928.0
12.2	1939.0
12.21	1987.0
12.22	1957.0
12.23	1972.0
12.24	1915.0
12.25	1937.0
12.26	1873.0
12.27	1916.0
12.28	1972.0
12.29	1955.0
12.3	1989.0
12.31	2019.0
12.32	1969.0
12.33	1957.0
12.34	1969.0
12.35	1913.0
12.36	1874.0
12.37	1927.0
12.38	1979.0
12.39	1936.0
12.4	1949.0
12.41	1984.0
12.42	1971.0
12.43	1962.0
12.44	1914.0
12.45	1932.0
12.46	1939.0
12.47	1953.0
12.48	1890.0
12.49	1884.0
12.5	1943.0
12.51	1924.0
12.52	1945.0
12.53	1922.0
12.54	1940.0
12.55	1948.0
12.56	1959.0
12.57	1917.0
12.58	1932.0
12.59	1972.0
12.6	1932.0
12.61	1918.0
12.62	1939.0
12.63	1911.0
12.64	1911.0
12.65	1882.0
12.66	1927.0
12.67	1980.0
12.68	1979.0
12.69	1985.0
12.7	2000.0
12.71	1956.0
12.72	1962.0
12.73	1966.0
12.74	1938.0
12.75	1965.0
12.76	1946.0
12.77	1902.0
12.78	1894.0
12.79	1948.0
12.8	1928.0
12.81	1914.0
12.82	1970.0
12.83	1997.0
12.84	1946.0
12.85	2010.0
12.86	1951.0
12.87	1965.0
12.88	1964.0
12.89	2001.0
12.9	1936.0
12.91	1965.0
12.92	1972.0
12.93	1978.0
12.94	1973.0
12.95	1992.0
12.96	2003.0
12.97	1984.0
12.98	1978.0
12.99	1977.0
13.0	1961.0
13.01	1972.0
13.02	1987.0
13.03	1969.0
13.04	1993.0
13.05	2000.0
13.06	1984.0
13.07	1932.0
13.08	1951.0
13.09	1958.0
13.1	2002.0
13.11	1986.0
13.12	1977.0
13.13	1941.0
13.14	2046.0
13.15	1993.0
13.16	1948.0
13.17	1982.0
13.18	2009.0
13.19	1996.0
13.2	2021.0
13.21	2029.0
13.22	2022.0
13.23	1991.0
13.24	1940.0
13.25	1927.0
13.26	1966.0
13.27	1950.0
13.28	2008.0
13.29	2016.0
13.3	1993.0
13.31	2049.0
13.32	2048.0
13.33	1979.0
13.34	1960.0
13.35	1984.0
13.36	1996.0
13.37	2006.0
13.38	1997.0
13.39	1985.0
13.4	1975.0
13.41	1979.0
13.42	1990.0
13.43	1976.0
13.44	1994.0
13.45	1978.0
13.46	1958.0
13.47	1985.0
13.48	2009.0
13.49	2036.0
13.5	2025.0
13.51	2055.0
13.52	2013.0
13.53	2015.0
13.54	1982.0
13.55	1987.0
13.56	1997.0
13.57	2023.0
13.58	2026.0
13.59	2025.0
13.6	2007.0
13.61	1991.0
13.62	2016.0
13.63	2031.0
13.64	2012.0
13.65	2011.0
13.66	2047.0
13.67	2042.0
13.68	1983.0
13.69	2013.0
13.7	1969.0
13.71	1933.0
13.72	1961.0
13.73	2012.0
13.74	2012.0
13.75	2048.0
13.76	2059.0
13.77	2050.0
13.78	2005.0
13.79	2024.0
13.8	2050.0
13.81	2014.0
13.82	2025.0
13.83	2019.0
13.84	2013.0
13.85	1989.0
13.86	2016.0
13.87	2074.0
13.88	2028.0
13.89	1994.0
13.9	2011.0
13.91	2042.0
13.92	2064.0
13.93	2009.0
13.94	1984.0
13.95	2022.0
13.96	1999.0
13.97	2002.0
13.98	1999.0
13.99	2038.0
14.0	2058.0
14.01	2064.0
14.02	2061.0
14.03	2076.0
14.04	2044.0
14.05	2042.0
14.06	2042.0
14.07	2021.0
14.08	2034.0
14.09	2022.0
14.1	2017.0
14.11	2030.0
14.12	2032.0
14.13	2038.0
14.14	2083.0
14.15	2080.0
14.16	2073.0
14.17	2018.0
14.18	2068.0
14.19	2088.0
14.2	2062.0
14.21	2045.0
14.22	2032.0
14.23	2064.0
14.24	2128.0
14.25	2124.0
14.26	2085.0
14.27	2105.0
14.28	2126.0
14.29	2105.0
14.3	2110.0
14.31	2082.0
14.32	2071.0
14.33	2124.0
14.34	2098.0
14.35	2102.0
14.36	2055.0
14.37	2072.0
14.38	2109.0
14.39	2126.0
14.4	2088.0
14.41	2049.0
14.42	2056.0
14.43	2061.0
14.44	2071.0
14.45	2055.0
14.46	2009.0
14.47	2008.0
14.48	2041.0
14.49	2082.0
14.5	2119.0
14.51	2060.0
14.52	2013.0
14.53	2079.0
14.54	2072.0
14.55	2058.0
14.56	2092.0
14.57	2054.0
14.58	2067.0
14.59	2062.0
14.6	2137.0
14.61	2106.0
14.62	2066.0
14.63	2074.0
14.64	2133.0
14.65	2135.0
14.66	2101.0
14.67	2085.0
14.68	2131.0
14.69	2134.0
14.7	2098.0
14.71	2113.0
14.72	2136.0
14.73	2106.0
14.74	2104.0
14.75	2114.0
14.76	2126.0
14.77	2102.0
14.78	2068.0
14.79	2113.0
14.8	2172.0
14.81	2176.0
14.82	2146.0
14.83	2119.0
14.84	2082.0
14.85	2116.0
14.86	2150.0
14.87	2103.0
14.88	2078.0
14.89	2094.0
14.9	2081.0
14.91	2090.0
14.92	2100.0
14.93	2108.0
14.94	2163.0
14.95	2174.0
14.96	2157.0
14.97	2122.0
14.98	2093.0
14.99	2089.0
15.0	2102.0
15.01	2119.0
15.02	2077.0
15.03	2083.0
15.04	2127.0
15.05	2077.0
15.06	2078.0
15.07	2122.0
15.08	2132.0
15.09	2138.0
15.1	2110.0
15.11	2088.0
15.12	2105.0
15.13	2063.0
15.14	2087.0
15.15	2133.0
15.16	2125.0
15.17	2081.0
15.18	2029.0
15.19	2076.0
15.2	2091.0
15.21	2096.0
15.22	2063.0
15.23	2025.0
15.24	2106.0
15.25	2072.0
15.26	2040.0
15.27	2035.0
15.28	2041.0
15.29	2039.0
15.3	2044.0
15.31	2064.0
15.32	2043.0
15.33	2064.0
15.34	2067.0
15.35	2036.0
15.36	2054.0
15.37	2041.0
15.38	2030.0
15.39	2032.0
15.4	2049.0
15.41	2023.0
15.42	2024.0
15.43	2047.0
15.44	2048.0
15.45	2032.0
15.46	2018.0
15.47	2024.0
15.48	2073.0
15.49	2094.0
15.5	2070.0
15.51	2022.0
15.52	2008.0
15.53	2046.0
15.54	2100.0
15.55	2088.0
15.56	2046.0
15.57	2041.0
15.58	2037.0
15.59	2020.0
15.6	2045.0
15.61	2046.0
15.62	2025.0
15.63	2004.0
15.64	2012.0
15.65	2009.0
15.66	1974.0
15.67	1956.0
15.68	1997.0
15.69	2047.0
15.7	2035.0
15.71	2038.0
15.72	2075.0
15.73	2052.0
15.74	1990.0
15.75	1979.0
15.76	1994.0
15.77	1989.0
15.78	2026.0
15.79	2051.0
15.8	2018.0
15.81	2009.0
15.82	2029.0
15.83	1988.0
15.84	1980.0
15.85	2006.0
15.86	2014.0
15.87	1989.0
15.88	1969.0
15.89	1977.0
15.9	2016.0
15.91	2057.0
15.92	2053.0
15.93	2014.0
15.94	2021.0
15.95	2016.0
15.96	1986.0
15.97	2004.0
15.98	2006.0
15.99	2009.0
16.0	2009.0
16.01	2007.0
16.02	2007.0
16.03	2020.0
16.04	1994.0
16.05	2010.0
16.06	2046.0
16.07	2059.0
16.08	2064.0
16.09	2027.0
16.1	1986.0
16.11	1987.0
16.12	1985.0
16.13	1971.0
16.14	1979.0
16.15	1988.0
16.16	1989.0
16.17	1984.0
16.18	1971.0
16.19	2000.0
16.2	2044.0
16.21	2030.0
16.22	2014.0
16.23	2006.0
16.24	2009.0
16.25	2024.0
16.26	2009.0
16.27	1978.0
16.28	1963.0
16.29	2018.0
16.3	2018.0
16.31	1996.0
16.32	2012.0
16.33	2021.0
16.34	1990.0
16.35	1962.0
16.36	1975.0
16.37	1996.0
16.38	2005.0
16.39	1981.0
16.4	1972.0
16.41	1976.0
16.42	1947.0
16.43	1955.0
16.44	2004.0
16.45	2018.0
16.46	1999.0
16.47	2015.0
16.48	1996.0
16.49	1988.0
16.5	1978.0
16.51	1970.0
16.52	1985.0
16.53	1956.0
16.54	1967.0
16.55	1993.0
16.56	1998.0
16.57	2002.0
16.58	2008.0
16.59	2007.0
16.6	1983.0
16.61	1960.0
16.62	1938.0
16.63	1955.0
16.64	1996.0
16.65	1976.0
16.66	1964.0
16.67	1974.0
16.68	1965.0
16.69	1968.0
16.7	2003.0
16.71	2023.0
16.72	2006.0
16.73	1968.0
16.74	1939.0
16.75	1951.0
16.76	1987.0
16.77	1995.0
16.78	1984.0
16.79	1979.0
16.8	1979.0
16.81	1987.0
16.82	1989.0
16.83	1984.0
16.84	1963.0
16.85	1972.0
16.86	1960.0
16.87	1950.0
16.88	1991.0
16.89	2012.0
16.9	1989.0
16.91	1940.0
16.92	1941.0
16.93	1972.0
16.94	1960.0
16.95	1994.0
16.96	2012.0
16.97	1980.0
16.98	1972.0
16.99	1994.0
17.0	2035.0
17.01	2037.0
17.02	1999.0
17.03	1958.0
17.04	1949.0
17.05	1979.0
17.06	1990.0
17.07	1963.0
17.08	1963.0
17.09	1982.0
17.1	1940.0
17.11	1884.0
17.12	1900.0
17.13	1935.0
17.14	1960.0
17.15	1964.0
17.16	1931.0
17.17	1917.0
17.18	1929.0
17.19	1925.0
17.2	1905.0
17.21	1916.0
17.22	1956.0
17.23	1963.0
17.24	1945.0
17.25	1956.0
17.26	1984.0
17.27	1958.0
17.28	1935.0
17.29	1934.0
17.3	1939.0
17.31	1967.0
17.32	1961.0
17.33	1934.0
17.34	1901.0
17.35	1891.0
17.36	1910.0
17.37	1933.0
17.38	1931.0
17.39	1909.0
17.4	1910.0
17.41	1935.0
17.42	1980.0
17.43	1987.0
17.44	1981.0
17.45	2007.0
17.46	1980.0
17.47	1930.0
17.48	1949.0
17.49	1974.0
17.5	1966.0
17.51	1943.0
17.52	1923.0
17.53	1940.0
17.54	1981.0
17.55	1980.0
17.56	1953.0
17.57	1930.0
17.58	1900.0
17.59	1929.0
17.6	1966.0
17.61	2003.0
17.62	2044.0
17.63	2015.0
17.64	1965.0
17.65	1938.0
17.66	1948.0
17.67	1982.0
17.68	1997.0
17.69	1989.0
17.7	1963.0
17.71	1964.0
17.72	1969.0
17.73	1967.0
17.74	1954.0
17.75	1947.0
17.76	2001.0
17.77	2025.0
17.78	2018.0
17.79	2012.0
17.8	1999.0
17.81	2001.0
17.82	1992.0
17.83	1986.0
17.84	1982.0
17.85	1976.0
17.86	1989.0
17.87	1996.0
17.88	1990.0
17.89	1987.0
17.9	1980.0
17.91	1983.0
17.92	1993.0
17.93	2010.0
17.94	2019.0
17.95	2035.0
17.96	2080.0
17.97	2093.0
17.98	2098.0
17.99	2084.0
18.0	2074.0
18.01	2080.0
18.02	2084.0
18.03	2098.0
18.04	2102.0
18.05	2106.0
18.06	2149.0
18.07	2150.0
18.08	2128.0
18.09	2160.0
18.1	2178.0
18.11	2164.0
18.12	2156.0
18.13	2192.0
18.14	2270.0
18.15	2303.0
18.16	2309.0
18.17	2348.0
18.18	2430.0
18.19	2512.0
18.2	2561.0
18.21	2601.0
18.22	2676.0
18.23	2775.0
18.24	2888.0
18.25	3020.0
18.26	3219.0
18.27	3390.0
18.28	3570.0
18.29	3815.0
18.3	4092.0
18.31	4356.0
18.32	4692.0
18.33	5088.0
18.34	5603.0
18.35	6151.0
18.36	6625.0
18.37	6894.0
18.38	7051.0
18.39	7183.0
18.4	7035.0
18.41	6622.0
18.42	6124.0
18.43	5581.0
18.44	4937.0
18.45	4312.0
18.46	3797.0
18.47	3328.0
18.48	2949.0
18.49	2695.0
18.5	2510.0
18.51	2367.0
18.52	2281.0
18.53	2262.0
18.54	2208.0
18.55	2166.0
18.56	2138.0
18.57	2104.0
18.58	2071.0
18.59	2090.0
18.6	2094.0
18.61	2073.0
18.62	2055.0
18.63	2068.0
18.64	2082.0
18.65	2061.0
18.66	2040.0
18.67	2045.0
18.68	2020.0
18.69	2017.0
18.7	2046.0
18.71	2035.0
18.72	2032.0
18.73	2015.0
18.74	2018.0
18.75	2043.0
18.76	2031.0
18.77	2002.0
18.78	1957.0
18.79	1952.0
18.8	1972.0
18.81	1987.0
18.82	1994.0
18.83	1919.0
18.84	1924.0
18.85	1960.0
18.86	1971.0
18.87	1955.0
18.88	1918.0
18.89	1928.0
18.9	1922.0
18.91	1899.0
18.92	1902.0
18.93	1937.0
18.94	1947.0
18.95	1962.0
18.96	1976.0
18.97	1957.0
18.98	1933.0
18.99	1934.0
19.0	1924.0
19.01	1895.0
19.02	1876.0
19.03	1899.0
19.04	1924.0
19.05	1926.0
19.06	1961.0
19.07	1971.0
19.08	1921.0
19.09	1913.0
19.1	1923.0
19.11	1921.0
19.12	1920.0
19.13	1922.0
19.14	1929.0
19.15	1900.0
19.16	1875.0
19.17	1897.0
19.18	1921.0
19.19	1887.0
19.2	1879.0
19.21	1885.0
19.22	1876.0
19.23	1886.0
19.24	1920.0
19.25	1903.0
19.26	1879.0
19.27	1873.0
19.28	1870.0
19.29	1856.0
19.3	1882.0
19.31	1894.0
19.32	1858.0
19.33	1827.0
19.34	1822.0
19.35	1852.0
19.36	1884.0
19.37	1876.0
19.38	1894.0
19.39	1861.0
19.4	1829.0
19.41	1834.0
19.42	1833.0
19.43	1805.0
19.44	1827.0
19.45	1861.0
19.46	1860.0
19.47	1827.0
19.48	1839.0
19.49	1832.0
19.5	1858.0
19.51	1856.0
19.52	1838.0
19.53	1818.0
19.54	1829.0
19.55	1863.0
19.56	1868.0
19.57	1877.0
19.58	1875.0
19.59	1823.0
19.6	1790.0
19.61	1811.0
19.62	1853.0
19.63	1827.0
19.64	1828.0
19.65	1880.0
19.66	1863.0
19.67	1843.0
19.68	1805.0
19.69	1814.0
19.7	1844.0
19.71	1828.0
19.72	1825.0
19.73	1836.0
19.74	1820.0
19.75	1814.0
19.76	1784.0
19.77	1748.0
19.78	1761.0
19.79	1832.0
19.8	1823.0
19.81	1751.0
19.82	1806.0
19.83	1813.0
19.84	1770.0
19.85	1756.0
19.86	1787.0
19.87	1817.0
19.88	1825.0
19.89	1782.0
19.9	1763.0
19.91	1783.0
19.92	1822.0
19.93	1820.0
19.94	1834.0
19.95	1815.0
19.96	1792.0
19.97	1811.0
19.98	1818.0
19.99	1785.0
20.0	1795.0
20.01	1795.0
20.02	1745.0
20.03	1735.0
20.04	1744.0
20.05	1820.0
20.06	1814.0
20.07	1740.0
20.08	1750.0
20.09	1773.0
20.1	1784.0
20.11	1767.0
20.12	1788.0
20.13	1774.0
20.14	1761.0
20.15	1784.0
20.16	1779.0
20.17	1747.0
20.18	1710.0
20.19	1676.0
20.2	1703.0
20.21	1745.0
20.22	1731.0
20.23	1729.0
20.24	1745.0
20.25	1725.0
20.26	1738.0
20.27	1746.0
20.28	1742.0
20.29	1744.0
20.3	1780.0
20.31	1777.0
20.32	1753.0
20.33	1720.0
20.34	1675.0
20.35	1676.0
20.36	1708.0
20.37	1769.0
20.38	1765.0
20.39	1729.0
20.4	1734.0
20.41	1734.0
20.42	1737.0
20.43	1738.0
20.44	1726.0
20.45	1743.0
20.46	1771.0
20.47	1726.0
20.48	1734.0
20.49	1721.0
20.5	1712.0
20.51	1711.0
20.52	1765.0
20.53	1730.0
20.54	1727.0
20.55	1745.0
20.56	1735.0
20.57	1731.0
20.58	1721.0
20.59	1716.0
20.6	1707.0
20.61	1738.0
20.62	1797.0
20.63	1791.0
20.64	1726.0
20.65	1720.0
20.66	1741.0
20.67	1716.0
20.68	1731.0
20.69	1752.0
20.7	1760.0
20.71	1729.0
20.72	1697.0
20.73	1683.0
20.74	1644.0
20.75	1652.0
20.76	1670.0
20.77	1707.0
20.78	1730.0
20.79	1676.0
20.8	1697.0
20.81	1694.0
20.82	1687.0
20.83	1690.0
20.84	1720.0
20.85	1718.0
20.86	1700.0
20.87	1691.0
20.88	1681.0
20.89	1687.0
20.9	1689.0
20.91	1710.0
20.92	1763.0
20.93	1738.0
20.94	1701.0
20.95	1681.0
20.96	1730.0
20.97	1714.0
20.98	1674.0
20.99	1705.0
21.0	1692.0
21.01	1702.0
21.02	1685.0
21.03	1674.0
21.04	1689.0
21.05	1671.0
21.06	1642.0
21.07	1640.0
21.08	1702.0
21.09	1701.0
21.1	1679.0
21.11	1661.0
21.12	1652.0
21.13	1632.0
21.14	1658.0
21.15	1725.0
21.16	1745.0
21.17	1683.0
21.18	1638.0
21.19	1657.0
21.2	1707.0
21.21	1693.0
21.22	1640.0
21.23	1645.0
21.24	1684.0
21.25	1705.0
21.26	1667.0
21.27	1636.0
21.28	1609.0
21.29	1595.0
21.3	1683.0
21.31	1704.0
21.32	1696.0
21.33	1662.0
21.34	1650.0
21.35	1682.0
21.36	1663.0
21.37	1617.0
21.38	1679.0
21.39	1662.0
21.4	1638.0
21.41	1636.0
21.42	1637.0
21.43	1620.0
21.44	1648.0
21.45	1651.0
21.46	1654.0
21.47	1682.0
21.48	1659.0
21.49	1622.0
21.5	1607.0
21.51	1649.0
21.52	1622.0
21.53	1685.0
21.54	1642.0
21.55	1648.0
21.56	1622.0
21.57	1621.0
21.58	1590.0
21.59	1636.0
21.6	1668.0
21.61	1637.0
21.62	1624.0
21.63	1600.0
21.64	1596.0
21.65	1545.0
21.66	1597.0
21.67	1608.0
21.68	1623.0
21.69	1620.0
21.7	1599.0
21.71	1575.0
21.72	1564.0
21.73	1615.0
21.74	1646.0
21.75	1613.0
21.76	1636.0
21.77	1580.0
21.78	1633.0
21.79	1617.0
21.8	1591.0
21.81	1586.0
21.82	1602.0
21.83	1614.0
21.84	1595.0
21.85	1583.0
21.86	1641.0
21.87	1615.0
21.88	1569.0
21.89	1572.0
21.9	1606.0
21.91	1624.0
21.92	1593.0
21.93	1647.0
21.94	1588.0
21.95	1620.0
21.96	1633.0
21.97	1623.0
21.98	1587.0
21.99	1598.0
22.0	1667.0
22.01	1617.0
22.02	1605.0
22.03	1566.0
22.04	1575.0
22.05	1639.0
22.06	1623.0
22.07	1618.0
22.08	1641.0
22.09	1599.0
22.1	1572.0
22.11	1596.0
22.12	1635.0
22.13	1620.0
22.14	1550.0
22.15	1540.0
22.16	1588.0
22.17	1580.0
22.18	1559.0
22.19	1567.0
22.2	1582.0
22.21	1598.0
22.22	1565.0
22.23	1578.0
22.24	1573.0
22.25	1565.0
22.26	1568.0
22.27	1591.0
22.28	1563.0
22.29	1550.0
22.3	1599.0
22.31	1603.0
22.32	1567.0
22.33	1570.0
22.34	1593.0
22.35	1521.0
22.36	1538.0
22.37	1562.0
22.38	1548.0
22.39	1553.0
22.4	1644.0
22.41	1585.0
22.42	1517.0
22.43	1537.0
22.44	1527.0
22.45	1497.0
22.46	1556.0
22.47	1568.0
22.48	1575.0
22.49	1569.0
22.5	1556.0
22.51	1560.0
22.52	1504.0
22.53	1498.0
22.54	1547.0
22.55	1528.0
22.56	1550.0
22.57	1545.0
22.58	1588.0
22.59	1508.0
22.6	1538.0
22.61	1504.0
22.62	1516.0
22.63	1591.0
22.64	1578.0
22.65	1549.0
22.66	1516.0
22.67	1533.0
22.68	1535.0
22.69	1497.0
22.7	1528.0
22.71	1526.0
22.72	1517.0
22.73	1548.0
22.74	1519.0
22.75	1463.0
22.76	1447.0
22.77	1546.0
22.78	1582.0
22.79	1504.0
22.8	1547.0
22.81	1499.0
22.82	1520.0
22.83	1540.0
22.84	1552.0
22.85	1537.0
22.86	1516.0
22.87	1525.0
22.88	1489.0
22.89	1443.0
22.9	1494.0
22.91	1517.0
22.92	1523.0
22.93	1524.0
22.94	1517.0
22.95	1510.0
22.96	1481.0
22.97	1523.0
22.98	1506.0
22.99	1471.0
23.0	1518.0
23.01	1508.0
23.02	1512.0
23.03	1523.0
23.04	1530.0
23.05	1528.0
23.06	1526.0
23.07	1506.0
23.08	1512.0
23.09	1503.0
23.1	1528.0
23.11	1548.0
23.12	1492.0
23.13	1517.0
23.14	1511.0
23.15	1491.0
23.16	1496.0
23.17	1540.0
23.18	1532.0
23.19	1540.0
23.2	1551.0
23.21	1523.0
23.22	1551.0
23.23	1525.0
23.24	1511.0
23.25	1514.0
23.26	1552.0
23.27	1581.0
23.28	1557.0
23.29	1532.0
23.3	1543.0
23.31	1539.0
23.32	1464.0
23.33	1499.0
23.34	1566.0
23.35	1528.0
23.36	1508.0
23.37	1542.0
23.38	1516.0
23.39	1525.0
23.4	1604.0
23.41	1573.0
23.42	1554.0
23.43	1590.0
23.44	1548.0
23.45	1530.0
23.46	1598.0
23.47	1573.0
23.48	1532.0
23.49	1575.0
23.5	1572.0
23.51	1568.0
23.52	1587.0
23.53	1586.0
23.54	1593.0
23.55	1595.0
23.56	1566.0
23.57	1585.0
23.58	1581.0
23.59	1574.0
23.6	1577.0
23.61	1551.0
23.62	1602.0
23.63	1631.0
23.64	1614.0
23.65	1564.0
23.66	1600.0
23.67	1602.0
23.68	1632.0
23.69	1599.0
23.7	1608.0
23.71	1596.0
23.72	1596.0
23.73	1630.0
23.74	1576.0
23.75	1565.0
23.76	1561.0
23.77	1570.0
23.78	1551.0
23.79	1561.0
23.8	1580.0
23.81	1584.0
23.82	1570.0
23.83	1577.0
23.84	1549.0
23.85	1548.0
23.86	1545.0
23.87	1531.0
23.88	1577.0
23.89	1534.0
23.9	1543.0
23.91	1520.0
23.92	1539.0
23.93	1519.0
23.94	1526.0
23.95	1538.0
23.96	1549.0
23.97	1527.0
23.98	1544.0
23.99	1543.0
24.0	1493.0
24.01	1492.0
24.02	1515.0
24.03	1450.0
24.04	1457.0
24.05	1471.0
24.06	1493.0
24.07	1509.0
24.08	1445.0
24.09	1459.0
24.1	1491.0
24.11	1467.0
24.12	1453.0
24.13	1423.0
24.14	1410.0
24.15	1433.0
24.16	1459.0
24.17	1426.0
24.18	1425.0
24.19	1438.0
24.2	1433.0
24.21	1433.0
24.22	1419.0
24.23	1383.0
24.24	1391.0
24.25	1398.0
24.26	1397.0
24.27	1389.0
24.28	1413.0
24.29	1402.0
24.3	1407.0
24.31	1460.0
24.32	1458.0
24.33	1411.0
24.34	1396.0
24.35	1395.0
24.36	1406.0
24.37	1418.0
24.38	1422.0
24.39	1385.0
24.4	1387.0
24.41	1442.0
24.42	1432.0
24.43	1392.0
24.44	1372.0
24.45	1413.0
24.46	1405.0
24.47	1383.0
24.48	1403.0
24.49	1380.0
24.5	1354.0
24.51	1384.0
24.52	1368.0
24.53	1372.0
24.54	1391.0
24.55	1336.0
24.56	1352.0
24.57	1367.0
24.58	1357.0
24.59	1357.0
24.6	1350.0
24.61	1368.0
24.62	1370.0
24.63	1355.0
24.64	1360.0
24.65	1390.0
24.66	1366.0
24.67	1319.0
24.68	1339.0
24.69	1378.0
24.7	1351.0
24.71	1311.0
24.72	1312.0
24.73	1329.0
24.74	1331.0
24.75	1322.0
24.76	1347.0
24.77	1407.0
24.78	1333.0
24.79	1308.0
24.8	1338.0
24.81	1324.0
24.82	1328.0
24.83	1345.0
24.84	1355.0
24.85	1355.0
24.86	1373.0
24.87	1372.0
24.88	1375.0
24.89	1345.0
24.9	1352.0
24.91	1410.0
24.92	1387.0
24.93	1354.0
24.94	1373.0
24.95	1369.0
24.96	1316.0
24.97	1310.0
24.98	1301.0
24.99	1295.0
25.0	1317.0
25.01	1328.0
25.02	1320.0
25.03	1306.0
25.04	1318.0
25.05	1334.0
25.06	1360.0
25.07	1345.0
25.08	1316.0
25.09	1325.0
25.1	1313.0
25.11	1299.0
25.12	1295.0
25.13	1309.0
25.14	1315.0
25.15	1331.0
25.16	1343.0
25.17	1323.0
25.18	1314.0
25.19	1320.0
25.2	1331.0
25.21	1306.0
25.22	1285.0
25.23	1308.0
25.24	1302.0
25.25	1311.0
25.26	1281.0
25.27	1279.0
25.28	1332.0
25.29	1359.0
25.3	1311.0
25.31	1291.0
25.32	1300.0
25.33	1292.0
25.34	1293.0
25.35	1309.0
25.36	1311.0
25.37	1321.0
25.38	1317.0
25.39	1345.0
25.4	1362.0
25.41	1341.0
25.42	1339.0
25.43	1329.0
25.44	1282.0
25.45	1275.0
