Offstoi_LiMnTiO4_100
Wavelength = 1.54059 Ã… (Cu)
10.0	1637.0
10.01	1673.0
10.02	1733.0
10.03	1731.0
10.04	1728.0
10.05	1726.0
10.06	1763.0
10.07	1746.0
10.08	1760.0
10.09	1786.0
10.1	1726.0
10.11	1718.0
10.12	1722.0
10.13	1791.0
10.14	1762.0
10.15	1738.0
10.16	1764.0
10.17	1766.0
10.18	1753.0
10.19	1741.0
10.2	1754.0
10.21	1771.0
10.22	1749.0
10.23	1737.0
10.24	1753.0
10.25	1781.0
10.26	1778.0
10.27	1785.0
10.28	1753.0
10.29	1720.0
10.3	1721.0
10.31	1752.0
10.32	1769.0
10.33	1779.0
10.34	1703.0
10.35	1707.0
10.36	1754.0
10.37	1749.0
10.38	1719.0
10.39	1712.0
10.4	1725.0
10.41	1810.0
10.42	1801.0
10.43	1781.0
10.44	1776.0
10.45	1740.0
10.46	1763.0
10.47	1760.0
10.48	1757.0
10.49	1807.0
10.5	1821.0
10.51	1781.0
10.52	1789.0
10.53	1787.0
10.54	1800.0
10.55	1756.0
10.56	1770.0
10.57	1754.0
10.58	1788.0
10.59	1771.0
10.6	1743.0
10.61	1807.0
10.62	1851.0
10.63	1804.0
10.64	1780.0
10.65	1764.0
10.66	1723.0
10.67	1738.0
10.68	1767.0
10.69	1811.0
10.7	1817.0
10.71	1818.0
10.72	1840.0
10.73	1832.0
10.74	1787.0
10.75	1787.0
10.76	1842.0
10.77	1830.0
10.78	1817.0
10.79	1791.0
10.8	1777.0
10.81	1779.0
10.82	1894.0
10.83	1910.0
10.84	1893.0
10.85	1833.0
10.86	1779.0
10.87	1782.0
10.88	1797.0
10.89	1803.0
10.9	1811.0
10.91	1775.0
10.92	1865.0
10.93	1801.0
10.94	1815.0
10.95	1854.0
10.96	1848.0
10.97	1817.0
10.98	1810.0
10.99	1786.0
11.0	1788.0
11.01	1852.0
11.02	1859.0
11.03	1814.0
11.04	1810.0
11.05	1823.0
11.06	1825.0
11.07	1781.0
11.08	1800.0
11.09	1839.0
11.1	1861.0
11.11	1867.0
11.12	1853.0
11.13	1759.0
11.14	1817.0
11.15	1810.0
11.16	1811.0
11.17	1836.0
11.18	1828.0
11.19	1855.0
11.2	1863.0
11.21	1861.0
11.22	1844.0
11.23	1853.0
11.24	1824.0
11.25	1787.0
11.26	1798.0
11.27	1842.0
11.28	1865.0
11.29	1803.0
11.3	1808.0
11.31	1867.0
11.32	1832.0
11.33	1836.0
11.34	1850.0
11.35	1825.0
11.36	1832.0
11.37	1860.0
11.38	1842.0
11.39	1906.0
11.4	1871.0
11.41	1859.0
11.42	1829.0
11.43	1772.0
11.44	1818.0
11.45	1840.0
11.46	1856.0
11.47	1875.0
11.48	1870.0
11.49	1848.0
11.5	1864.0
11.51	1909.0
11.52	1871.0
11.53	1821.0
11.54	1814.0
11.55	1914.0
11.56	1909.0
11.57	1876.0
11.58	1929.0
11.59	1897.0
11.6	1908.0
11.61	1894.0
11.62	1889.0
11.63	1869.0
11.64	1876.0
11.65	1850.0
11.66	1896.0
11.67	1876.0
11.68	1856.0
11.69	1854.0
11.7	1864.0
11.71	1881.0
11.72	1942.0
11.73	1920.0
11.74	1950.0
11.75	1896.0
11.76	1920.0
11.77	1886.0
11.78	1936.0
11.79	1924.0
11.8	1886.0
11.81	1854.0
11.82	1878.0
11.83	1854.0
11.84	1801.0
11.85	1855.0
11.86	1892.0
11.87	1869.0
11.88	1877.0
11.89	1887.0
11.9	1889.0
11.91	1877.0
11.92	1854.0
11.93	1902.0
11.94	1981.0
11.95	1939.0
11.96	1909.0
11.97	1911.0
11.98	1994.0
11.99	1968.0
12.0	1938.0
12.01	1919.0
12.02	1897.0
12.03	1889.0
12.04	1877.0
12.05	1877.0
12.06	1906.0
12.07	1944.0
12.08	1917.0
12.09	1927.0
12.1	1876.0
12.11	1954.0
12.12	1986.0
12.13	1930.0
12.14	1942.0
12.15	1923.0
12.16	1947.0
12.17	1901.0
12.18	1917.0
12.19	1950.0
12.2	1944.0
12.21	1898.0
12.22	1884.0
12.23	1911.0
12.24	1852.0
12.25	1843.0
12.26	1906.0
12.27	1885.0
12.28	1855.0
12.29	1924.0
12.3	1971.0
12.31	1946.0
12.32	1934.0
12.33	1967.0
12.34	1959.0
12.35	1894.0
12.36	1918.0
12.37	1918.0
12.38	1945.0
12.39	1928.0
12.4	1909.0
12.41	1944.0
12.42	1923.0
12.43	1917.0
12.44	1970.0
12.45	1932.0
12.46	1860.0
12.47	1889.0
12.48	1980.0
12.49	1964.0
12.5	2007.0
12.51	2011.0
12.52	1945.0
12.53	1907.0
12.54	1882.0
12.55	1908.0
12.56	1945.0
12.57	1963.0
12.58	1970.0
12.59	1995.0
12.6	1999.0
12.61	1973.0
12.62	1928.0
12.63	1945.0
12.64	1961.0
12.65	2009.0
12.66	1995.0
12.67	1913.0
12.68	1950.0
12.69	1994.0
12.7	1944.0
12.71	1994.0
12.72	1995.0
12.73	1940.0
12.74	1937.0
12.75	1941.0
12.76	1950.0
12.77	1945.0
12.78	1906.0
12.79	1977.0
12.8	1973.0
12.81	1966.0
12.82	1964.0
12.83	1952.0
12.84	1940.0
12.85	1952.0
12.86	1928.0
12.87	1954.0
12.88	1972.0
12.89	1983.0
12.9	1976.0
12.91	1955.0
12.92	2006.0
12.93	2017.0
12.94	2015.0
12.95	2028.0
12.96	2019.0
12.97	2011.0
12.98	1968.0
12.99	1935.0
13.0	1953.0
13.01	1953.0
13.02	1990.0
13.03	2003.0
13.04	1947.0
13.05	1944.0
13.06	1968.0
13.07	1975.0
13.08	1985.0
13.09	1959.0
13.1	2040.0
13.11	2020.0
13.12	2016.0
13.13	2000.0
13.14	1966.0
13.15	1942.0
13.16	1936.0
13.17	1939.0
13.18	1998.0
13.19	2016.0
13.2	1976.0
13.21	1996.0
13.22	2039.0
13.23	1976.0
13.24	1971.0
13.25	1982.0
13.26	1976.0
13.27	1982.0
13.28	2009.0
13.29	2065.0
13.3	2002.0
13.31	2005.0
13.32	2053.0
13.33	2055.0
13.34	2008.0
13.35	2059.0
13.36	2073.0
13.37	2049.0
13.38	2051.0
13.39	2045.0
13.4	2018.0
13.41	2026.0
13.42	2052.0
13.43	2010.0
13.44	1986.0
13.45	2033.0
13.46	2042.0
13.47	2031.0
13.48	2050.0
13.49	2068.0
13.5	1997.0
13.51	2046.0
13.52	2017.0
13.53	2005.0
13.54	1992.0
13.55	2053.0
13.56	2033.0
13.57	2016.0
13.58	2006.0
13.59	2019.0
13.6	2050.0
13.61	2065.0
13.62	2018.0
13.63	1996.0
13.64	2041.0
13.65	2056.0
13.66	2026.0
13.67	2037.0
13.68	2020.0
13.69	2002.0
13.7	1958.0
13.71	1992.0
13.72	1997.0
13.73	2001.0
13.74	2028.0
13.75	2037.0
13.76	2064.0
13.77	2067.0
13.78	2022.0
13.79	1997.0
13.8	2049.0
13.81	2071.0
13.82	2041.0
13.83	2025.0
13.84	2054.0
13.85	2077.0
13.86	2059.0
13.87	2077.0
13.88	2064.0
13.89	2047.0
13.9	2033.0
13.91	2036.0
13.92	2059.0
13.93	2081.0
13.94	2059.0
13.95	2009.0
13.96	2011.0
13.97	2086.0
13.98	2070.0
13.99	2058.0
14.0	2036.0
14.01	2025.0
14.02	2033.0
14.03	2062.0
14.04	2026.0
14.05	2010.0
14.06	2033.0
14.07	2107.0
14.08	2119.0
14.09	2005.0
14.1	2007.0
14.11	2018.0
14.12	2067.0
14.13	2066.0
14.14	2072.0
14.15	2057.0
14.16	2043.0
14.17	2075.0
14.18	2075.0
14.19	2033.0
14.2	2038.0
14.21	2059.0
14.22	2058.0
14.23	2035.0
14.24	1996.0
14.25	2062.0
14.26	2075.0
14.27	2047.0
14.28	2031.0
14.29	2011.0
14.3	2011.0
14.31	2049.0
14.32	2057.0
14.33	2027.0
14.34	2029.0
14.35	2039.0
14.36	2080.0
14.37	2097.0
14.38	2101.0
14.39	2098.0
14.4	2122.0
14.41	2134.0
14.42	2117.0
14.43	2068.0
14.44	2018.0
14.45	2026.0
14.46	2021.0
14.47	2024.0
14.48	2031.0
14.49	2042.0
14.5	2050.0
14.51	2066.0
14.52	2061.0
14.53	2013.0
14.54	2024.0
14.55	2059.0
14.56	2072.0
14.57	2075.0
14.58	2098.0
14.59	2076.0
14.6	2091.0
14.61	2071.0
14.62	2068.0
14.63	2039.0
14.64	2029.0
14.65	2031.0
14.66	2054.0
14.67	2068.0
14.68	2055.0
14.69	2033.0
14.7	2018.0
14.71	2093.0
14.72	2116.0
14.73	2086.0
14.74	2057.0
14.75	2048.0
14.76	2023.0
14.77	2061.0
14.78	2088.0
14.79	2050.0
14.8	2047.0
14.81	2089.0
14.82	2084.0
14.83	2060.0
14.84	2044.0
14.85	2058.0
14.86	2072.0
14.87	2077.0
14.88	2064.0
14.89	2061.0
14.9	2103.0
14.91	2114.0
14.92	2103.0
14.93	2041.0
14.94	2049.0
14.95	2044.0
14.96	2036.0
14.97	2054.0
14.98	2085.0
14.99	2082.0
15.0	2031.0
15.01	2013.0
15.02	2019.0
15.03	1996.0
15.04	2070.0
15.05	2095.0
15.06	2080.0
15.07	2052.0
15.08	2041.0
15.09	2034.0
15.1	2063.0
15.11	2109.0
15.12	2112.0
15.13	2035.0
15.14	2042.0
15.15	2063.0
15.16	2088.0
15.17	2116.0
15.18	2063.0
15.19	2040.0
15.2	2017.0
15.21	2008.0
15.22	2049.0
15.23	2046.0
15.24	2046.0
15.25	2029.0
15.26	1996.0
15.27	1975.0
15.28	2003.0
15.29	2055.0
15.3	2084.0
15.31	2056.0
15.32	1994.0
15.33	1981.0
15.34	1997.0
15.35	1993.0
15.36	2011.0
15.37	1996.0
15.38	1982.0
15.39	2025.0
15.4	1995.0
15.41	1957.0
15.42	1949.0
15.43	1982.0
15.44	2012.0
15.45	2009.0
15.46	2016.0
15.47	2045.0
15.48	2081.0
15.49	2065.0
15.5	2061.0
15.51	2071.0
15.52	2039.0
15.53	2030.0
15.54	2049.0
15.55	2022.0
15.56	2010.0
15.57	2055.0
15.58	2055.0
15.59	2015.0
15.6	2005.0
15.61	2021.0
15.62	1993.0
15.63	1993.0
15.64	2031.0
15.65	2030.0
15.66	2005.0
15.67	2014.0
15.68	1992.0
15.69	1997.0
15.7	2069.0
15.71	2098.0
15.72	2064.0
15.73	2049.0
15.74	2071.0
15.75	2069.0
15.76	2024.0
15.77	2012.0
15.78	2016.0
15.79	2016.0
15.8	2016.0
15.81	2012.0
15.82	2019.0
15.83	1991.0
15.84	2008.0
15.85	2010.0
15.86	2007.0
15.87	1991.0
15.88	1997.0
15.89	1993.0
15.9	1999.0
15.91	2016.0
15.92	1995.0
15.93	1959.0
15.94	1995.0
15.95	2070.0
15.96	2039.0
15.97	2012.0
15.98	2008.0
15.99	2006.0
16.0	1996.0
16.01	1983.0
16.02	1994.0
16.03	2030.0
16.04	2047.0
16.05	2040.0
16.06	2007.0
16.07	2009.0
16.08	2025.0
16.09	2000.0
16.1	2036.0
16.11	2050.0
16.12	1982.0
16.13	1968.0
16.14	2034.0
16.15	2033.0
16.16	1984.0
16.17	1988.0
16.18	2013.0
16.19	2021.0
16.2	2002.0
16.21	1984.0
16.22	1991.0
16.23	1987.0
16.24	2005.0
16.25	2025.0
16.26	2002.0
16.27	1954.0
16.28	1966.0
16.29	2007.0
16.3	2044.0
16.31	2049.0
16.32	2044.0
16.33	1997.0
16.34	1962.0
16.35	1995.0
16.36	2002.0
16.37	1985.0
16.38	1963.0
16.39	2003.0
16.4	2016.0
16.41	1981.0
16.42	1990.0
16.43	2027.0
16.44	1994.0
16.45	1972.0
16.46	1983.0
16.47	1998.0
16.48	2003.0
16.49	1975.0
16.5	1967.0
16.51	1966.0
16.52	1953.0
16.53	1998.0
16.54	2017.0
16.55	1994.0
16.56	2002.0
16.57	2001.0
16.58	1967.0
16.59	1999.0
16.6	2039.0
16.61	2009.0
16.62	2000.0
16.63	1988.0
16.64	1999.0
16.65	1997.0
16.66	1979.0
16.67	1985.0
16.68	2026.0
16.69	2023.0
16.7	1963.0
16.71	1946.0
16.72	1961.0
16.73	1974.0
16.74	1994.0
16.75	2014.0
16.76	2019.0
16.77	2024.0
16.78	2023.0
16.79	2005.0
16.8	2003.0
16.81	2000.0
16.82	1983.0
16.83	1990.0
16.84	2021.0
16.85	2061.0
16.86	2062.0
16.87	2009.0
16.88	2012.0
16.89	2060.0
16.9	2061.0
16.91	2016.0
16.92	2000.0
16.93	2022.0
16.94	1982.0
16.95	1976.0
16.96	2023.0
16.97	2036.0
16.98	2028.0
16.99	2002.0
17.0	1980.0
17.01	1977.0
17.02	1997.0
17.03	1994.0
17.04	1964.0
17.05	1955.0
17.06	1988.0
17.07	2002.0
17.08	1992.0
17.09	1977.0
17.1	1975.0
17.11	1994.0
17.12	2007.0
17.13	1984.0
17.14	1959.0
17.15	1947.0
17.16	1982.0
17.17	2010.0
17.18	2024.0
17.19	2039.0
17.2	2029.0
17.21	1992.0
17.22	1959.0
17.23	1975.0
17.24	1992.0
17.25	1989.0
17.26	1981.0
17.27	1977.0
17.28	2015.0
17.29	2052.0
17.3	2043.0
17.31	2003.0
17.32	1968.0
17.33	1962.0
17.34	1966.0
17.35	1984.0
17.36	1994.0
17.37	2000.0
17.38	2008.0
17.39	2017.0
17.4	2029.0
17.41	2003.0
17.42	1985.0
17.43	2017.0
17.44	2016.0
17.45	1968.0
17.46	1980.0
17.47	1997.0
17.48	1982.0
17.49	2000.0
17.5	2009.0
17.51	1975.0
17.52	1975.0
17.53	2019.0
17.54	2000.0
17.55	1975.0
17.56	1986.0
17.57	1984.0
17.58	1981.0
17.59	1984.0
17.6	1999.0
17.61	2020.0
17.62	2003.0
17.63	2005.0
17.64	2053.0
17.65	2056.0
17.66	2047.0
17.67	2050.0
17.68	2035.0
17.69	2019.0
17.7	2010.0
17.71	2003.0
17.72	1992.0
17.73	2010.0
17.74	2023.0
17.75	2007.0
17.76	2004.0
17.77	2028.0
17.78	2027.0
17.79	2013.0
17.8	2018.0
17.81	2022.0
17.82	2033.0
17.83	2016.0
17.84	1981.0
17.85	1997.0
17.86	2043.0
17.87	2048.0
17.88	2045.0
17.89	2063.0
17.9	2060.0
17.91	2037.0
17.92	2031.0
17.93	2024.0
17.94	2025.0
17.95	2064.0
17.96	2090.0
17.97	2087.0
17.98	2119.0
17.99	2144.0
18.0	2112.0
18.01	2102.0
18.02	2147.0
18.03	2201.0
18.04	2211.0
18.05	2218.0
18.06	2209.0
18.07	2228.0
18.08	2284.0
18.09	2335.0
18.1	2344.0
18.11	2344.0
18.12	2393.0
18.13	2484.0
18.14	2550.0
18.15	2648.0
18.16	2770.0
18.17	2845.0
18.18	2924.0
18.19	3047.0
18.2	3258.0
18.21	3412.0
18.22	3600.0
18.23	3857.0
18.24	4095.0
18.25	4374.0
18.26	4693.0
18.27	5024.0
18.28	5347.0
18.29	5608.0
18.3	5732.0
18.31	5725.0
18.32	5665.0
18.33	5603.0
18.34	5433.0
18.35	5187.0
18.36	4929.0
18.37	4589.0
18.38	4264.0
18.39	3991.0
18.4	3739.0
18.41	3490.0
18.42	3290.0
18.43	3127.0
18.44	3031.0
18.45	2971.0
18.46	2896.0
18.47	2831.0
18.48	2780.0
18.49	2748.0
18.5	2738.0
18.51	2667.0
18.52	2590.0
18.53	2531.0
18.54	2388.0
18.55	2356.0
18.56	2346.0
18.57	2239.0
18.58	2180.0
18.59	2157.0
18.6	2128.0
18.61	2096.0
18.62	2116.0
18.63	2132.0
18.64	2104.0
18.65	2072.0
18.66	2063.0
18.67	2055.0
18.68	2040.0
18.69	2003.0
18.7	2016.0
18.71	2061.0
18.72	2064.0
18.73	2030.0
18.74	2019.0
18.75	1987.0
18.76	1960.0
18.77	1988.0
18.78	2031.0
18.79	1991.0
18.8	1948.0
18.81	1929.0
18.82	1949.0
18.83	1979.0
18.84	1927.0
18.85	1910.0
18.86	1929.0
18.87	1915.0
18.88	1909.0
18.89	1941.0
18.9	1963.0
18.91	1961.0
18.92	1933.0
18.93	1910.0
18.94	1893.0
18.95	1914.0
18.96	1931.0
18.97	1937.0
18.98	1916.0
18.99	1900.0
19.0	1944.0
19.01	1961.0
19.02	1954.0
19.03	1953.0
19.04	1939.0
19.05	1936.0
19.06	1909.0
19.07	1907.0
19.08	1915.0
19.09	1966.0
19.1	1981.0
19.11	1964.0
19.12	1924.0
19.13	1887.0
19.14	1868.0
19.15	1909.0
19.16	1922.0
19.17	1920.0
19.18	1903.0
19.19	1897.0
19.2	1921.0
19.21	1926.0
19.22	1909.0
19.23	1864.0
19.24	1863.0
19.25	1914.0
19.26	1941.0
19.27	1919.0
19.28	1903.0
19.29	1891.0
19.3	1894.0
19.31	1874.0
19.32	1863.0
19.33	1898.0
19.34	1913.0
19.35	1882.0
19.36	1880.0
19.37	1894.0
19.38	1872.0
19.39	1864.0
19.4	1846.0
19.41	1850.0
19.42	1874.0
19.43	1891.0
19.44	1871.0
19.45	1886.0
19.46	1941.0
19.47	1905.0
19.48	1900.0
19.49	1889.0
19.5	1882.0
19.51	1897.0
19.52	1869.0
19.53	1863.0
19.54	1872.0
19.55	1849.0
19.56	1834.0
19.57	1862.0
19.58	1858.0
19.59	1820.0
19.6	1806.0
19.61	1823.0
19.62	1834.0
19.63	1852.0
19.64	1896.0
19.65	1918.0
19.66	1858.0
19.67	1838.0
19.68	1888.0
19.69	1916.0
19.7	1865.0
19.71	1834.0
19.72	1841.0
19.73	1844.0
19.74	1836.0
19.75	1826.0
19.76	1813.0
19.77	1829.0
19.78	1823.0
19.79	1845.0
19.8	1890.0
19.81	1862.0
19.82	1856.0
19.83	1850.0
19.84	1841.0
19.85	1776.0
19.86	1827.0
19.87	1854.0
19.88	1821.0
19.89	1840.0
19.9	1829.0
19.91	1830.0
19.92	1852.0
19.93	1849.0
19.94	1810.0
19.95	1787.0
19.96	1839.0
19.97	1867.0
19.98	1826.0
19.99	1831.0
20.0	1855.0
20.01	1837.0
20.02	1858.0
20.03	1839.0
20.04	1790.0
20.05	1767.0
20.06	1831.0
20.07	1857.0
20.08	1874.0
20.09	1820.0
20.1	1830.0
20.11	1830.0
20.12	1799.0
20.13	1777.0
20.14	1790.0
20.15	1739.0
20.16	1733.0
20.17	1786.0
20.18	1834.0
20.19	1847.0
20.2	1794.0
20.21	1808.0
20.22	1824.0
20.23	1790.0
20.24	1781.0
20.25	1761.0
20.26	1769.0
20.27	1800.0
20.28	1789.0
20.29	1753.0
20.3	1765.0
20.31	1739.0
20.32	1788.0
20.33	1793.0
20.34	1790.0
20.35	1802.0
20.36	1850.0
20.37	1831.0
20.38	1779.0
20.39	1794.0
20.4	1843.0
20.41	1801.0
20.42	1747.0
20.43	1771.0
20.44	1784.0
20.45	1781.0
20.46	1797.0
20.47	1770.0
20.48	1756.0
20.49	1787.0
20.5	1785.0
20.51	1777.0
20.52	1750.0
20.53	1762.0
20.54	1759.0
20.55	1810.0
20.56	1782.0
20.57	1772.0
20.58	1754.0
20.59	1748.0
20.6	1747.0
20.61	1759.0
20.62	1779.0
20.63	1760.0
20.64	1762.0
20.65	1777.0
20.66	1772.0
20.67	1754.0
20.68	1716.0
20.69	1754.0
20.7	1778.0
20.71	1762.0
20.72	1745.0
20.73	1703.0
20.74	1702.0
20.75	1731.0
20.76	1793.0
20.77	1771.0
20.78	1758.0
20.79	1796.0
20.8	1771.0
20.81	1751.0
20.82	1757.0
20.83	1785.0
20.84	1760.0
20.85	1726.0
20.86	1724.0
20.87	1703.0
20.88	1730.0
20.89	1739.0
20.9	1716.0
20.91	1682.0
20.92	1714.0
20.93	1764.0
20.94	1760.0
20.95	1762.0
20.96	1746.0
20.97	1759.0
20.98	1739.0
20.99	1749.0
21.0	1741.0
21.01	1721.0
21.02	1746.0
21.03	1753.0
21.04	1735.0
21.05	1705.0
21.06	1670.0
21.07	1664.0
21.08	1666.0
21.09	1706.0
21.1	1718.0
21.11	1718.0
21.12	1737.0
21.13	1761.0
21.14	1752.0
21.15	1727.0
21.16	1751.0
21.17	1756.0
21.18	1732.0
21.19	1736.0
21.2	1710.0
21.21	1717.0
21.22	1735.0
21.23	1705.0
21.24	1673.0
21.25	1678.0
21.26	1700.0
21.27	1688.0
21.28	1706.0
21.29	1703.0
21.3	1693.0
21.31	1637.0
21.32	1706.0
21.33	1698.0
21.34	1704.0
21.35	1680.0
21.36	1653.0
21.37	1651.0
21.38	1665.0
21.39	1698.0
21.4	1635.0
21.41	1638.0
21.42	1650.0
21.43	1664.0
21.44	1654.0
21.45	1662.0
21.46	1659.0
21.47	1650.0
21.48	1698.0
21.49	1682.0
21.5	1654.0
21.51	1647.0
21.52	1686.0
21.53	1714.0
21.54	1650.0
21.55	1649.0
21.56	1645.0
21.57	1652.0
21.58	1675.0
21.59	1652.0
21.6	1676.0
21.61	1643.0
21.62	1635.0
21.63	1650.0
21.64	1591.0
21.65	1594.0
21.66	1625.0
21.67	1634.0
21.68	1640.0
21.69	1633.0
21.7	1613.0
21.71	1636.0
21.72	1634.0
21.73	1607.0
21.74	1626.0
21.75	1661.0
21.76	1653.0
21.77	1628.0
21.78	1675.0
21.79	1614.0
21.8	1634.0
21.81	1618.0
21.82	1603.0
21.83	1625.0
21.84	1641.0
21.85	1647.0
21.86	1611.0
21.87	1601.0
21.88	1579.0
21.89	1604.0
21.9	1612.0
21.91	1633.0
21.92	1640.0
21.93	1614.0
21.94	1558.0
21.95	1633.0
21.96	1640.0
21.97	1657.0
21.98	1602.0
21.99	1575.0
22.0	1576.0
22.01	1588.0
22.02	1555.0
22.03	1561.0
22.04	1605.0
22.05	1641.0
22.06	1628.0
22.07	1615.0
22.08	1595.0
22.09	1585.0
22.1	1574.0
22.11	1609.0
22.12	1620.0
22.13	1618.0
22.14	1623.0
22.15	1635.0
22.16	1609.0
22.17	1628.0
22.18	1571.0
22.19	1588.0
22.2	1629.0
22.21	1611.0
22.22	1615.0
22.23	1615.0
22.24	1597.0
22.25	1549.0
22.26	1595.0
22.27	1603.0
22.28	1584.0
22.29	1571.0
22.3	1578.0
22.31	1611.0
22.32	1625.0
22.33	1572.0
22.34	1552.0
22.35	1577.0
22.36	1564.0
22.37	1555.0
22.38	1532.0
22.39	1568.0
22.4	1567.0
22.41	1535.0
22.42	1600.0
22.43	1579.0
22.44	1564.0
22.45	1566.0
22.46	1569.0
22.47	1590.0
22.48	1579.0
22.49	1544.0
22.5	1573.0
22.51	1569.0
22.52	1581.0
22.53	1565.0
22.54	1546.0
22.55	1620.0
22.56	1582.0
22.57	1509.0
22.58	1505.0
22.59	1551.0
22.6	1572.0
22.61	1539.0
22.62	1502.0
22.63	1549.0
22.64	1523.0
22.65	1522.0
22.66	1578.0
22.67	1621.0
22.68	1584.0
22.69	1598.0
22.7	1571.0
22.71	1540.0
22.72	1563.0
22.73	1574.0
22.74	1533.0
22.75	1498.0
22.76	1520.0
22.77	1510.0
22.78	1530.0
22.79	1551.0
22.8	1536.0
22.81	1556.0
22.82	1465.0
22.83	1543.0
22.84	1537.0
22.85	1532.0
22.86	1511.0
22.87	1552.0
22.88	1564.0
22.89	1526.0
22.9	1507.0
22.91	1520.0
22.92	1525.0
22.93	1511.0
22.94	1512.0
22.95	1521.0
22.96	1533.0
22.97	1527.0
22.98	1501.0
22.99	1484.0
23.0	1472.0
23.01	1541.0
23.02	1512.0
23.03	1508.0
23.04	1511.0
23.05	1497.0
23.06	1520.0
23.07	1492.0
23.08	1434.0
23.09	1472.0
23.1	1501.0
23.11	1541.0
23.12	1533.0
23.13	1513.0
23.14	1518.0
23.15	1507.0
23.16	1527.0
23.17	1504.0
23.18	1518.0
23.19	1497.0
23.2	1496.0
23.21	1507.0
23.22	1543.0
23.23	1484.0
23.24	1477.0
23.25	1484.0
23.26	1466.0
23.27	1533.0
23.28	1503.0
23.29	1496.0
23.3	1445.0
23.31	1445.0
23.32	1477.0
23.33	1486.0
23.34	1496.0
23.35	1511.0
23.36	1509.0
23.37	1504.0
23.38	1462.0
23.39	1481.0
23.4	1484.0
23.41	1472.0
23.42	1485.0
23.43	1446.0
23.44	1472.0
23.45	1505.0
23.46	1543.0
23.47	1455.0
23.48	1480.0
23.49	1458.0
23.5	1459.0
23.51	1460.0
23.52	1467.0
23.53	1451.0
23.54	1480.0
23.55	1477.0
23.56	1460.0
23.57	1447.0
23.58	1457.0
23.59	1475.0
23.6	1479.0
23.61	1470.0
23.62	1432.0
23.63	1401.0
23.64	1455.0
23.65	1461.0
23.66	1446.0
23.67	1482.0
23.68	1468.0
23.69	1458.0
23.7	1513.0
23.71	1502.0
23.72	1478.0
23.73	1464.0
23.74	1455.0
23.75	1479.0
23.76	1462.0
23.77	1449.0
23.78	1421.0
23.79	1453.0
23.8	1449.0
23.81	1445.0
23.82	1426.0
23.83	1432.0
23.84	1460.0
23.85	1454.0
23.86	1401.0
23.87	1438.0
23.88	1429.0
23.89	1436.0
23.9	1405.0
23.91	1458.0
23.92	1464.0
23.93	1432.0
23.94	1431.0
23.95	1456.0
23.96	1486.0
23.97	1445.0
23.98	1421.0
23.99	1422.0
24.0	1428.0
24.01	1416.0
24.02	1397.0
24.03	1413.0
24.04	1460.0
24.05	1435.0
24.06	1435.0
24.07	1438.0
24.08	1418.0
24.09	1437.0
24.1	1437.0
24.11	1443.0
24.12	1434.0
24.13	1450.0
24.14	1472.0
24.15	1448.0
24.16	1443.0
24.17	1459.0
24.18	1430.0
24.19	1404.0
24.2	1418.0
24.21	1421.0
24.22	1419.0
24.23	1416.0
24.24	1370.0
24.25	1368.0
24.26	1398.0
24.27	1422.0
24.28	1423.0
24.29	1407.0
24.3	1384.0
24.31	1400.0
24.32	1406.0
24.33	1375.0
24.34	1366.0
24.35	1386.0
24.36	1396.0
24.37	1364.0
24.38	1335.0
24.39	1363.0
24.4	1408.0
24.41	1397.0
24.42	1361.0
24.43	1371.0
24.44	1400.0
24.45	1424.0
24.46	1415.0
24.47	1387.0
24.48	1351.0
24.49	1367.0
24.5	1361.0
24.51	1389.0
24.52	1385.0
24.53	1377.0
24.54	1369.0
24.55	1406.0
24.56	1350.0
24.57	1349.0
24.58	1374.0
24.59	1383.0
24.6	1410.0
24.61	1428.0
24.62	1413.0
24.63	1362.0
24.64	1365.0
24.65	1392.0
24.66	1393.0
24.67	1358.0
24.68	1359.0
24.69	1325.0
24.7	1373.0
24.71	1389.0
24.72	1386.0
24.73	1358.0
24.74	1372.0
24.75	1357.0
24.76	1338.0
24.77	1362.0
24.78	1382.0
24.79	1354.0
24.8	1351.0
24.81	1365.0
24.82	1372.0
24.83	1375.0
24.84	1357.0
24.85	1337.0
24.86	1347.0
24.87	1359.0
24.88	1347.0
24.89	1354.0
24.9	1349.0
24.91	1384.0
24.92	1372.0
24.93	1357.0
24.94	1355.0
24.95	1345.0
24.96	1355.0
24.97	1359.0
24.98	1375.0
24.99	1359.0
25.0	1305.0
25.01	1340.0
25.02	1399.0
25.03	1410.0
25.04	1363.0
25.05	1339.0
25.06	1307.0
25.07	1299.0
25.08	1297.0
25.09	1303.0
25.1	1315.0
25.11	1307.0
25.12	1345.0
25.13	1340.0
25.14	1337.0
25.15	1330.0
25.16	1313.0
25.17	1322.0
25.18	1331.0
25.19	1335.0
25.2	1312.0
25.21	1324.0
25.22	1321.0
25.23	1293.0
25.24	1297.0
25.25	1353.0
25.26	1344.0
25.27	1319.0
25.28	1327.0
25.29	1331.0
25.3	1325.0
25.31	1340.0
25.32	1339.0
25.33	1321.0
25.34	1352.0
25.35	1347.0
25.36	1380.0
25.37	1392.0
25.38	1357.0
25.39	1304.0
25.4	1284.0
25.41	1288.0
25.42	1303.0
25.43	1331.0
25.44	1320.0
25.45	1288.0
