Thick_LiMnO2_0p6mm_p
Wavelength = 1.54059 Ã… (Cu)
Angle	I(o)	I(b)
10.0	1545.0	1533.5
10.01	1544.0	1534.3
10.02	1529.0	1535.2
10.03	1542.0	1536.1
10.04	1547.0	1537.0
10.05	1546.0	1537.8
10.06	1520.0	1538.7
10.07	1587.0	1539.6
10.08	1578.0	1540.4
10.09	1571.0	1541.3
10.1	1601.0	1542.2
10.11	1563.0	1543.0
10.12	1587.0	1543.9
10.13	1576.0	1544.8
10.14	1611.0	1545.6
10.15	1550.0	1546.5
10.16	1506.0	1547.4
10.17	1563.0	1548.3
10.18	1587.0	1549.1
10.19	1559.0	1550.0
10.2	1592.0	1550.9
10.21	1578.0	1551.7
10.22	1564.0	1552.6
10.23	1574.0	1553.5
10.24	1615.0	1554.3
10.25	1641.0	1555.2
10.26	1569.0	1556.1
10.27	1557.0	1557.0
10.28	1555.0	1557.8
10.29	1493.0	1558.7
10.3	1564.0	1559.6
10.31	1590.0	1560.4
10.32	1585.0	1561.3
10.33	1611.0	1562.2
10.34	1586.0	1563.1
10.35	1563.0	1563.9
10.36	1615.0	1564.8
10.37	1582.0	1565.7
10.38	1617.0	1566.5
10.39	1587.0	1567.4
10.4	1593.0	1568.3
10.41	1617.0	1569.2
10.42	1605.0	1570.0
10.43	1611.0	1570.9
10.44	1583.0	1571.8
10.45	1599.0	1572.7
10.46	1596.0	1573.5
10.47	1580.0	1574.4
10.48	1604.0	1575.3
10.49	1569.0	1576.2
10.5	1583.0	1577.0
10.51	1577.0	1577.9
10.52	1582.0	1578.8
10.53	1609.0	1579.7
10.54	1568.0	1580.5
10.55	1599.0	1581.4
10.56	1649.0	1582.3
10.57	1598.0	1583.2
10.58	1617.0	1584.1
10.59	1612.0	1584.9
10.6	1634.0	1585.8
10.61	1640.0	1586.7
10.62	1597.0	1587.6
10.63	1596.0	1588.4
10.64	1625.0	1589.3
10.65	1604.0	1590.2
10.66	1607.0	1591.1
10.67	1653.0	1592.0
10.68	1648.0	1592.8
10.69	1600.0	1593.7
10.7	1567.0	1594.6
10.71	1597.0	1595.5
10.72	1629.0	1596.4
10.73	1620.0	1597.3
10.74	1610.0	1598.1
10.75	1600.0	1599.0
10.76	1592.0	1599.9
10.77	1611.0	1600.8
10.78	1607.0	1601.7
10.79	1644.0	1602.6
10.8	1642.0	1603.5
10.81	1620.0	1604.3
10.82	1615.0	1605.2
10.83	1605.0	1606.1
10.84	1636.0	1607.0
10.85	1619.0	1607.9
10.86	1643.0	1608.8
10.87	1646.0	1609.7
10.88	1632.0	1610.6
10.89	1621.0	1611.5
10.9	1619.0	1612.3
10.91	1611.0	1613.2
10.92	1577.0	1614.1
10.93	1669.0	1615.0
10.94	1632.0	1615.9
10.95	1611.0	1616.8
10.96	1603.0	1617.7
10.97	1588.0	1618.6
10.98	1659.0	1619.5
10.99	1675.0	1620.4
11.0	1690.0	1621.3
11.01	1673.0	1622.2
11.02	1696.0	1623.1
11.03	1645.0	1624.0
11.04	1654.0	1624.9
11.05	1650.0	1625.8
11.06	1629.0	1626.7
11.07	1602.0	1627.6
11.08	1610.0	1628.5
11.09	1655.0	1629.4
11.1	1669.0	1630.3
11.11	1641.0	1631.2
11.12	1591.0	1632.1
11.13	1627.0	1633.0
11.14	1672.0	1633.9
11.15	1651.0	1634.8
11.16	1615.0	1635.7
11.17	1621.0	1636.6
11.18	1621.0	1637.5
11.19	1679.0	1638.4
11.2	1673.0	1639.3
11.21	1689.0	1640.2
11.22	1680.0	1641.1
11.23	1653.0	1642.0
11.24	1657.0	1643.0
11.25	1688.0	1643.9
11.26	1622.0	1644.8
11.27	1659.0	1645.7
11.28	1670.0	1646.6
11.29	1651.0	1647.5
11.3	1676.0	1648.4
11.31	1680.0	1649.3
11.32	1671.0	1650.2
11.33	1676.0	1651.2
11.34	1722.0	1652.1
11.35	1692.0	1653.0
11.36	1675.0	1653.9
11.37	1654.0	1654.8
11.38	1658.0	1655.7
11.39	1646.0	1656.7
11.4	1645.0	1657.6
11.41	1613.0	1658.5
11.42	1643.0	1659.4
11.43	1726.0	1660.3
11.44	1737.0	1661.2
11.45	1659.0	1662.2
11.46	1678.0	1663.1
11.47	1686.0	1664.0
11.48	1694.0	1664.9
11.49	1677.0	1665.8
11.5	1672.0	1666.8
11.51	1632.0	1667.7
11.52	1671.0	1668.6
11.53	1700.0	1669.5
11.54	1714.0	1670.4
11.55	1747.0	1671.4
11.56	1697.0	1672.3
11.57	1673.0	1673.2
11.58	1660.0	1674.1
11.59	1672.0	1675.0
11.6	1639.0	1676.0
11.61	1712.0	1676.9
11.62	1713.0	1677.8
11.63	1696.0	1678.7
11.64	1706.0	1679.7
11.65	1694.0	1680.6
11.66	1723.0	1681.5
11.67	1714.0	1682.4
11.68	1696.0	1683.4
11.69	1680.0	1684.3
11.7	1653.0	1685.2
11.71	1658.0	1686.1
11.72	1649.0	1687.0
11.73	1685.0	1688.0
11.74	1664.0	1688.9
11.75	1664.0	1689.8
11.76	1686.0	1690.7
11.77	1641.0	1691.7
11.78	1658.0	1692.6
11.79	1688.0	1693.5
11.8	1741.0	1694.4
11.81	1755.0	1695.4
11.82	1722.0	1696.3
11.83	1680.0	1697.2
11.84	1714.0	1698.1
11.85	1690.0	1699.1
11.86	1702.0	1700.0
11.87	1735.0	1700.9
11.88	1752.0	1701.8
11.89	1755.0	1702.8
11.9	1752.0	1703.7
11.91	1770.0	1704.6
11.92	1714.0	1705.5
11.93	1711.0	1706.4
11.94	1778.0	1707.4
11.95	1810.0	1708.3
11.96	1755.0	1709.2
11.97	1744.0	1710.1
11.98	1749.0	1711.1
11.99	1778.0	1712.0
12.0	1722.0	1712.9
12.01	1692.0	1713.8
12.02	1786.0	1714.8
12.03	1769.0	1715.7
12.04	1784.0	1716.6
12.05	1759.0	1717.5
12.06	1715.0	1718.4
12.07	1704.0	1719.4
12.08	1726.0	1720.3
12.09	1752.0	1721.2
12.1	1717.0	1722.1
12.11	1767.0	1723.0
12.12	1811.0	1724.0
12.13	1768.0	1724.9
12.14	1759.0	1725.8
12.15	1773.0	1726.7
12.16	1739.0	1727.6
12.17	1758.0	1728.6
12.18	1778.0	1729.5
12.19	1791.0	1730.4
12.2	1771.0	1731.3
12.21	1769.0	1732.2
12.22	1806.0	1733.1
12.23	1765.0	1734.1
12.24	1778.0	1735.0
12.25	1798.0	1735.9
12.26	1787.0	1736.8
12.27	1787.0	1737.7
12.28	1803.0	1738.6
12.29	1817.0	1739.5
12.3	1820.0	1740.5
12.31	1799.0	1741.4
12.32	1769.0	1742.3
12.33	1767.0	1743.2
12.34	1783.0	1744.1
12.35	1752.0	1745.0
12.36	1752.0	1745.9
12.37	1808.0	1746.8
12.38	1814.0	1747.7
12.39	1791.0	1748.7
12.4	1768.0	1749.6
12.41	1818.0	1750.5
12.42	1810.0	1751.4
12.43	1823.0	1752.3
12.44	1746.0	1753.2
12.45	1749.0	1754.1
12.46	1804.0	1755.0
12.47	1767.0	1755.9
12.48	1733.0	1756.8
12.49	1736.0	1757.7
12.5	1796.0	1758.6
12.51	1784.0	1759.5
12.52	1725.0	1760.4
12.53	1791.0	1761.3
12.54	1814.0	1762.2
12.55	1781.0	1763.1
12.56	1736.0	1764.0
12.57	1774.0	1764.9
12.58	1808.0	1765.8
12.59	1787.0	1766.7
12.6	1803.0	1767.6
12.61	1822.0	1768.5
12.62	1835.0	1769.4
12.63	1843.0	1770.3
12.64	1783.0	1771.2
12.65	1836.0	1772.1
12.66	1861.0	1773.0
12.67	1809.0	1773.9
12.68	1825.0	1774.7
12.69	1795.0	1775.6
12.7	1762.0	1776.5
12.71	1797.0	1777.4
12.72	1811.0	1778.3
12.73	1823.0	1779.2
12.74	1826.0	1780.1
12.75	1796.0	1781.0
12.76	1775.0	1781.8
12.77	1726.0	1782.7
12.78	1771.0	1783.6
12.79	1789.0	1784.5
12.8	1755.0	1785.4
12.81	1778.0	1786.2
12.82	1816.0	1787.1
12.83	1859.0	1788.0
12.84	1871.0	1788.9
12.85	1930.0	1789.8
12.86	1855.0	1790.6
12.87	1863.0	1791.5
12.88	1809.0	1792.4
12.89	1809.0	1793.2
12.9	1887.0	1794.1
12.91	1835.0	1795.0
12.92	1841.0	1795.9
12.93	1836.0	1796.7
12.94	1856.0	1797.6
12.95	1868.0	1798.5
12.96	1832.0	1799.3
12.97	1809.0	1800.2
12.98	1834.0	1801.0
12.99	1828.0	1801.9
13.0	1817.0	1802.8
13.01	1819.0	1803.6
13.02	1817.0	1804.5
13.03	1793.0	1805.3
13.04	1788.0	1806.2
13.05	1815.0	1807.1
13.06	1833.0	1807.9
13.07	1882.0	1808.8
13.08	1874.0	1809.6
13.09	1854.0	1810.5
13.1	1819.0	1811.3
13.11	1818.0	1812.2
13.12	1860.0	1813.0
13.13	1910.0	1813.9
13.14	1831.0	1814.7
13.15	1816.0	1815.5
13.16	1844.0	1816.4
13.17	1852.0	1817.2
13.18	1859.0	1818.1
13.19	1851.0	1818.9
13.2	1852.0	1819.7
13.21	1843.0	1820.6
13.22	1847.0	1821.4
13.23	1821.0	1822.2
13.24	1810.0	1823.1
13.25	1844.0	1823.9
13.26	1833.0	1824.7
13.27	1877.0	1825.6
13.28	1899.0	1826.4
13.29	1892.0	1827.2
13.3	1928.0	1828.0
13.31	1890.0	1828.9
13.32	1885.0	1829.7
13.33	1870.0	1830.5
13.34	1831.0	1831.3
13.35	1847.0	1832.1
13.36	1848.0	1833.0
13.37	1820.0	1833.8
13.38	1861.0	1834.6
13.39	1854.0	1835.4
13.4	1838.0	1836.2
13.41	1841.0	1837.0
13.42	1871.0	1837.8
13.43	1912.0	1838.6
13.44	1901.0	1839.4
13.45	1913.0	1840.3
13.46	1898.0	1841.1
13.47	1897.0	1841.9
13.48	1890.0	1842.7
13.49	1934.0	1843.5
13.5	1932.0	1844.3
13.51	1931.0	1845.1
13.52	1882.0	1845.8
13.53	1905.0	1846.6
13.54	1939.0	1847.4
13.55	1967.0	1848.2
13.56	1959.0	1849.0
13.57	1927.0	1849.8
13.58	1948.0	1850.6
13.59	1907.0	1851.4
13.6	1870.0	1852.2
13.61	1913.0	1852.9
13.62	1941.0	1853.7
13.63	1907.0	1854.5
13.64	1917.0	1855.3
13.65	1929.0	1856.1
13.66	1922.0	1856.8
13.67	1926.0	1857.6
13.68	1939.0	1858.4
13.69	1946.0	1859.2
13.7	1915.0	1859.9
13.71	1932.0	1860.7
13.72	1913.0	1861.5
13.73	1951.0	1862.2
13.74	1948.0	1863.0
13.75	1935.0	1863.8
13.76	1924.0	1864.5
13.77	1974.0	1865.3
13.78	1956.0	1866.1
13.79	1938.0	1866.8
13.8	1934.0	1867.6
13.81	1957.0	1868.3
13.82	1940.0	1869.1
13.83	1916.0	1869.8
13.84	1948.0	1870.6
13.85	1953.0	1871.3
13.86	1918.0	1872.1
13.87	1936.0	1872.8
13.88	1947.0	1873.6
13.89	1925.0	1874.3
13.9	1963.0	1875.1
13.91	1954.0	1875.8
13.92	1931.0	1876.6
13.93	1945.0	1877.3
13.94	1971.0	1878.0
13.95	1969.0	1878.8
13.96	1966.0	1879.5
13.97	1962.0	1880.2
13.98	1948.0	1881.0
13.99	1975.0	1881.7
14.0	1995.0	1882.4
14.01	1979.0	1883.2
14.02	1975.0	1883.9
14.03	1982.0	1884.6
14.04	1908.0	1885.3
14.05	1899.0	1886.1
14.06	1971.0	1886.8
14.07	1998.0	1887.5
14.08	1978.0	1888.2
14.09	1995.0	1888.9
14.1	1997.0	1889.6
14.11	2018.0	1890.4
14.12	1981.0	1891.1
14.13	1979.0	1891.8
14.14	1977.0	1892.5
14.15	1986.0	1893.2
14.16	1980.0	1893.9
14.17	1964.0	1894.6
14.18	2024.0	1895.3
14.19	2013.0	1896.0
14.2	1990.0	1896.7
14.21	2003.0	1897.4
14.22	1988.0	1898.1
14.23	1949.0	1898.8
14.24	1951.0	1899.5
14.25	1966.0	1900.2
14.26	1928.0	1900.9
14.27	1932.0	1901.6
14.28	1963.0	1902.3
14.29	1955.0	1903.0
14.3	1939.0	1903.7
14.31	1969.0	1904.3
14.32	1974.0	1905.0
14.33	1997.0	1905.7
14.34	1986.0	1906.4
14.35	1972.0	1907.1
14.36	1998.0	1907.7
14.37	1999.0	1908.4
14.38	1977.0	1909.1
14.39	2011.0	1909.8
14.4	2002.0	1910.4
14.41	1994.0	1911.1
14.42	2028.0	1911.8
14.43	2018.0	1912.4
14.44	1999.0	1913.1
14.45	1997.0	1913.8
14.46	2004.0	1914.4
14.47	2036.0	1915.1
14.48	2017.0	1915.8
14.49	2001.0	1916.4
14.5	2035.0	1917.1
14.51	2039.0	1917.7
14.52	2016.0	1918.4
14.53	1982.0	1919.0
14.54	1971.0	1919.7
14.55	1981.0	1920.3
14.56	1993.0	1921.0
14.57	1997.0	1921.6
14.58	2005.0	1922.3
14.59	1985.0	1922.9
14.6	1986.0	1923.6
14.61	1977.0	1924.2
14.62	2000.0	1924.8
14.63	2034.0	1925.5
14.64	2020.0	1926.1
14.65	1991.0	1926.7
14.66	1989.0	1927.4
14.67	1975.0	1928.0
14.68	1979.0	1928.6
14.69	2006.0	1929.3
14.7	2019.0	1929.9
14.71	2019.0	1930.5
14.72	1959.0	1931.1
14.73	1930.0	1931.8
14.74	1971.0	1932.4
14.75	1980.0	1933.0
14.76	1984.0	1933.6
14.77	1976.0	1934.2
14.78	2007.0	1934.8
14.79	2029.0	1935.5
14.8	2018.0	1936.1
14.81	1959.0	1936.7
14.82	1958.0	1937.3
14.83	1987.0	1937.9
14.84	2016.0	1938.5
14.85	2050.0	1939.1
14.86	2042.0	1939.7
14.87	2059.0	1940.3
14.88	2047.0	1940.9
14.89	2005.0	1941.5
14.9	1964.0	1942.1
14.91	1988.0	1942.7
14.92	2002.0	1943.3
14.93	1974.0	1943.9
14.94	2009.0	1944.5
14.95	2001.0	1945.0
14.96	2018.0	1945.6
14.97	2068.0	1946.2
14.98	2065.0	1946.8
14.99	2015.0	1947.4
15.0	2003.0	1948.0
15.01	2012.0	1948.5
15.02	2047.0	1949.1
15.03	2032.0	1949.7
15.04	2034.0	1950.3
15.05	2048.0	1950.8
15.06	2053.0	1951.4
15.07	2062.0	1952.0
15.08	2013.0	1952.5
15.09	2009.0	1953.1
15.1	2032.0	1953.7
15.11	2001.0	1954.2
15.12	1985.0	1954.8
15.13	1984.0	1955.3
15.14	1978.0	1955.9
15.15	2002.0	1956.5
15.16	2013.0	1957.0
15.17	2057.0	1957.6
15.18	2084.0	1958.1
15.19	2075.0	1958.7
15.2	2057.0	1959.2
15.21	2057.0	1959.8
15.22	2018.0	1960.3
15.23	2018.0	1960.8
15.24	2037.0	1961.4
15.25	2031.0	1961.9
15.26	2031.0	1962.5
15.27	2003.0	1963.0
15.28	2006.0	1963.5
15.29	2014.0	1964.1
15.3	2051.0	1964.6
15.31	2059.0	1965.1
15.32	2008.0	1965.7
15.33	2042.0	1966.2
15.34	2061.0	1966.7
15.35	2036.0	1967.2
15.36	2002.0	1967.8
15.37	1980.0	1968.3
15.38	2015.0	1968.8
15.39	2058.0	1969.3
15.4	2072.0	1969.8
15.41	2054.0	1970.3
15.42	2020.0	1970.8
15.43	2009.0	1971.4
15.44	1989.0	1971.9
15.45	2007.0	1972.4
15.46	2041.0	1972.9
15.47	2052.0	1973.4
15.48	2059.0	1973.9
15.49	2057.0	1974.4
15.5	2057.0	1974.9
15.51	2061.0	1975.4
15.52	2050.0	1975.9
15.53	2049.0	1976.4
15.54	2075.0	1976.9
15.55	2090.0	1977.3
15.56	2065.0	1977.8
15.57	2033.0	1978.3
15.58	2046.0	1978.8
15.59	2064.0	1979.3
15.6	2090.0	1979.8
15.61	2098.0	1980.2
15.62	2041.0	1980.7
15.63	2026.0	1981.2
15.64	2045.0	1981.7
15.65	2041.0	1982.2
15.66	2028.0	1982.6
15.67	2009.0	1983.1
15.68	2020.0	1983.6
15.69	2071.0	1984.0
15.7	2112.0	1984.5
15.71	2092.0	1985.0
15.72	2098.0	1985.4
15.73	2110.0	1985.9
15.74	2075.0	1986.3
15.75	2090.0	1986.8
15.76	2100.0	1987.2
15.77	2110.0	1987.7
15.78	2132.0	1988.1
15.79	2121.0	1988.6
15.8	2074.0	1989.0
15.81	2082.0	1989.5
15.82	2133.0	1989.9
15.83	2205.0	1990.4
15.84	2197.0	1990.8
15.85	2177.0	1991.3
15.86	2154.0	1991.7
15.87	2142.0	1992.1
15.88	2173.0	1992.6
15.89	2217.0	1993.0
15.9	2186.0	1993.4
15.91	2173.0	1993.8
15.92	2192.0	1994.3
15.93	2194.0	1994.7
15.94	2231.0	1995.1
15.95	2266.0	1995.5
15.96	2287.0	1996.0
15.97	2344.0	1996.4
15.98	2389.0	1996.8
15.99	2386.0	1997.2
16.0	2404.0	1997.6
16.01	2438.0	1998.0
16.02	2483.0	1998.4
16.03	2518.0	1998.9
16.04	2537.0	1999.3
16.05	2550.0	1999.7
16.06	2592.0	2000.1
16.07	2680.0	2000.5
16.08	2754.0	2000.9
16.09	2804.0	2001.3
16.1	2838.0	2001.7
16.11	2893.0	2002.1
16.12	3007.0	2002.4
16.13	3149.0	2002.8
16.14	3279.0	2003.2
16.15	3372.0	2003.6
16.16	3463.0	2004.0
16.17	3581.0	2004.4
16.18	3748.0	2004.8
16.19	3887.0	2005.1
16.2	4010.0	2005.5
16.21	4063.0	2005.9
16.22	4065.0	2006.3
16.23	4046.0	2006.6
16.24	4065.0	2007.0
16.25	4082.0	2007.4
16.26	3962.0	2007.7
16.27	3842.0	2008.1
16.28	3760.0	2008.5
16.29	3723.0	2008.8
16.3	3659.0	2009.2
16.31	3547.0	2009.5
16.32	3427.0	2009.9
16.33	3273.0	2010.3
16.34	3162.0	2010.6
16.35	3122.0	2011.0
16.36	3025.0	2011.3
16.37	2931.0	2011.7
16.38	2884.0	2012.0
16.39	2839.0	2012.3
16.4	2783.0	2012.7
16.41	2751.0	2013.0
16.42	2685.0	2013.4
16.43	2661.0	2013.7
16.44	2681.0	2014.0
16.45	2632.0	2014.4
16.46	2588.0	2014.7
16.47	2541.0	2015.0
16.48	2514.0	2015.3
16.49	2488.0	2015.7
16.5	2496.0	2016.0
16.51	2511.0	2016.3
16.52	2475.0	2016.6
16.53	2441.0	2016.9
16.54	2444.0	2017.3
16.55	2423.0	2017.6
16.56	2410.0	2017.9
16.57	2413.0	2018.2
16.58	2435.0	2018.5
16.59	2408.0	2018.8
16.6	2362.0	2019.1
16.61	2322.0	2019.4
16.62	2316.0	2019.7
16.63	2328.0	2020.0
16.64	2331.0	2020.3
16.65	2331.0	2020.6
16.66	2295.0	2020.9
16.67	2266.0	2021.2
16.68	2255.0	2021.5
16.69	2237.0	2021.8
16.7	2222.0	2022.1
16.71	2239.0	2022.3
16.72	2251.0	2022.6
16.73	2257.0	2022.9
16.74	2256.0	2023.2
16.75	2229.0	2023.5
16.76	2217.0	2023.7
16.77	2220.0	2024.0
16.78	2219.0	2024.3
16.79	2229.0	2024.6
16.8	2249.0	2024.8
16.81	2205.0	2025.1
16.82	2163.0	2025.3
16.83	2234.0	2025.6
16.84	2245.0	2025.9
16.85	2185.0	2026.1
16.86	2181.0	2026.4
16.87	2206.0	2026.6
16.88	2216.0	2026.9
16.89	2225.0	2027.1
16.9	2200.0	2027.4
16.91	2195.0	2027.6
16.92	2213.0	2027.9
16.93	2192.0	2028.1
16.94	2178.0	2028.4
16.95	2193.0	2028.6
16.96	2206.0	2028.8
16.97	2207.0	2029.1
16.98	2223.0	2029.3
16.99	2218.0	2029.5
17.0	2194.0	2029.8
17.01	2166.0	2030.0
17.02	2148.0	2030.2
17.03	2171.0	2030.4
17.04	2185.0	2030.7
17.05	2176.0	2030.9
17.06	2173.0	2031.1
17.07	2189.0	2031.3
17.08	2169.0	2031.5
17.09	2111.0	2031.7
17.1	2116.0	2031.9
17.11	2172.0	2032.2
17.12	2215.0	2032.4
17.13	2219.0	2032.6
17.14	2184.0	2032.8
17.15	2161.0	2033.0
17.16	2162.0	2033.2
17.17	2142.0	2033.4
17.18	2155.0	2033.6
17.19	2168.0	2033.7
17.2	2159.0	2033.9
17.21	2174.0	2034.1
17.22	2152.0	2034.3
17.23	2120.0	2034.5
17.24	2115.0	2034.7
17.25	2127.0	2034.9
17.26	2154.0	2035.0
17.27	2178.0	2035.2
17.28	2154.0	2035.4
17.29	2129.0	2035.6
17.3	2139.0	2035.7
17.31	2125.0	2035.9
17.32	2119.0	2036.1
17.33	2100.0	2036.2
17.34	2108.0	2036.4
17.35	2135.0	2036.5
17.36	2133.0	2036.7
17.37	2132.0	2036.9
17.38	2120.0	2037.0
17.39	2126.0	2037.2
17.4	2146.0	2037.3
17.41	2164.0	2037.5
17.42	2154.0	2037.6
17.43	2158.0	2037.8
17.44	2173.0	2037.9
17.45	2141.0	2038.0
17.46	2103.0	2038.2
17.47	2091.0	2038.3
17.48	2119.0	2038.5
17.49	2162.0	2038.6
17.5	2173.0	2038.7
17.51	2168.0	2038.8
17.52	2163.0	2039.0
17.53	2142.0	2039.1
17.54	2155.0	2039.2
17.55	2162.0	2039.3
17.56	2101.0	2039.5
17.57	2071.0	2039.6
17.58	2110.0	2039.7
17.59	2142.0	2039.8
17.6	2142.0	2039.9
17.61	2113.0	2040.0
17.62	2117.0	2040.1
17.63	2154.0	2040.2
17.64	2167.0	2040.3
17.65	2166.0	2040.4
17.66	2144.0	2040.5
17.67	2149.0	2040.6
17.68	2151.0	2040.7
17.69	2135.0	2040.8
17.7	2121.0	2040.9
17.71	2099.0	2041.0
17.72	2113.0	2041.1
17.73	2105.0	2041.2
17.74	2091.0	2041.3
17.75	2112.0	2041.3
17.76	2100.0	2041.4
17.77	2106.0	2041.5
17.78	2122.0	2041.6
17.79	2121.0	2041.6
17.8	2135.0	2041.7
17.81	2125.0	2041.8
17.82	2128.0	2041.8
17.83	2147.0	2041.9
17.84	2139.0	2042.0
17.85	2128.0	2042.0
17.86	2131.0	2042.1
17.87	2122.0	2042.1
17.88	2103.0	2042.2
17.89	2114.0	2042.2
17.9	2122.0	2042.3
17.91	2121.0	2042.3
17.92	2114.0	2042.4
17.93	2120.0	2042.4
17.94	2106.0	2042.5
17.95	2085.0	2042.5
17.96	2102.0	2042.5
17.97	2094.0	2042.6
17.98	2086.0	2042.6
17.99	2082.0	2042.6
18.0	2098.0	2042.7
18.01	2115.0	2042.7
18.02	2128.0	2042.7
18.03	2132.0	2042.7
18.04	2119.0	2042.8
18.05	2118.0	2042.8
18.06	2140.0	2042.8
18.07	2150.0	2042.8
18.08	2092.0	2042.8
18.09	2072.0	2042.8
18.1	2149.0	2042.8
18.11	2173.0	2042.8
18.12	2124.0	2042.8
18.13	2139.0	2042.8
18.14	2193.0	2042.8
18.15	2174.0	2042.8
18.16	2156.0	2042.8
18.17	2161.0	2042.8
18.18	2140.0	2042.8
18.19	2110.0	2042.8
18.2	2112.0	2042.8
18.21	2106.0	2042.8
18.22	2093.0	2042.8
18.23	2085.0	2042.7
18.24	2095.0	2042.7
18.25	2113.0	2042.7
18.26	2143.0	2042.7
18.27	2141.0	2042.6
18.28	2096.0	2042.6
18.29	2077.0	2042.6
18.3	2101.0	2042.5
18.31	2131.0	2042.5
18.32	2130.0	2042.5
18.33	2144.0	2042.4
18.34	2139.0	2042.4
18.35	2115.0	2042.3
18.36	2096.0	2042.3
18.37	2111.0	2042.2
18.38	2132.0	2042.2
18.39	2089.0	2042.1
18.4	2080.0	2042.1
18.41	2109.0	2042.0
18.42	2126.0	2041.9
18.43	2102.0	2041.9
18.44	2129.0	2041.8
18.45	2138.0	2041.7
18.46	2100.0	2041.7
18.47	2087.0	2041.6
18.48	2124.0	2041.5
18.49	2168.0	2041.5
18.5	2177.0	2041.4
18.51	2151.0	2041.3
18.52	2117.0	2041.2
18.53	2110.0	2041.1
18.54	2144.0	2041.0
18.55	2161.0	2040.9
18.56	2105.0	2040.9
18.57	2075.0	2040.8
18.58	2098.0	2040.7
18.59	2126.0	2040.6
18.6	2123.0	2040.5
18.61	2121.0	2040.4
18.62	2126.0	2040.3
18.63	2119.0	2040.2
18.64	2164.0	2040.0
18.65	2164.0	2039.9
18.66	2135.0	2039.8
18.67	2139.0	2039.7
18.68	2172.0	2039.6
18.69	2176.0	2039.5
18.7	2140.0	2039.3
18.71	2117.0	2039.2
18.72	2110.0	2039.1
18.73	2073.0	2039.0
18.74	2034.0	2038.8
18.75	2054.0	2038.7
18.76	2131.0	2038.6
18.77	2178.0	2038.4
18.78	2200.0	2038.3
18.79	2162.0	2038.1
18.8	2134.0	2038.0
18.81	2108.0	2037.9
18.82	2131.0	2037.7
18.83	2148.0	2037.6
18.84	2136.0	2037.4
18.85	2161.0	2037.2
18.86	2221.0	2037.1
18.87	2244.0	2036.9
18.88	2260.0	2036.8
18.89	2273.0	2036.6
18.9	2269.0	2036.4
18.91	2278.0	2036.3
18.92	2253.0	2036.1
18.93	2228.0	2035.9
18.94	2248.0	2035.7
18.95	2277.0	2035.6
18.96	2307.0	2035.4
18.97	2299.0	2035.2
18.98	2302.0	2035.0
18.99	2329.0	2034.8
19.0	2319.0	2034.6
19.01	2347.0	2034.5
19.02	2379.0	2034.3
19.03	2347.0	2034.1
19.04	2320.0	2033.9
19.05	2312.0	2033.7
19.06	2292.0	2033.5
19.07	2286.0	2033.3
19.08	2260.0	2033.0
19.09	2221.0	2032.8
19.1	2205.0	2032.6
19.11	2231.0	2032.4
19.12	2216.0	2032.2
19.13	2212.0	2032.0
19.14	2231.0	2031.8
19.15	2235.0	2031.5
19.16	2224.0	2031.3
19.17	2209.0	2031.1
19.18	2171.0	2030.8
19.19	2144.0	2030.6
19.2	2155.0	2030.4
19.21	2158.0	2030.1
19.22	2170.0	2029.9
19.23	2129.0	2029.7
19.24	2136.0	2029.4
19.25	2145.0	2029.2
19.26	2107.0	2028.9
19.27	2091.0	2028.7
19.28	2118.0	2028.4
19.29	2116.0	2028.2
19.3	2087.0	2027.9
19.31	2099.0	2027.6
19.32	2135.0	2027.4
19.33	2122.0	2027.1
19.34	2090.0	2026.8
19.35	2050.0	2026.6
19.36	2051.0	2026.3
19.37	2102.0	2026.0
19.38	2098.0	2025.8
19.39	2105.0	2025.5
19.4	2137.0	2025.2
19.41	2066.0	2024.9
19.42	1990.0	2024.6
19.43	2039.0	2024.3
19.44	2115.0	2024.1
19.45	2136.0	2023.8
19.46	2147.0	2023.5
19.47	2139.0	2023.2
19.48	2130.0	2022.9
19.49	2089.0	2022.6
19.5	2106.0	2022.3
19.51	2120.0	2022.0
19.52	2128.0	2021.6
19.53	2067.0	2021.3
19.54	2035.0	2021.0
19.55	2066.0	2020.7
19.56	2082.0	2020.4
19.57	2076.0	2020.1
19.58	2078.0	2019.7
19.59	2098.0	2019.4
19.6	2084.0	2019.1
19.61	2057.0	2018.8
19.62	2069.0	2018.4
19.63	2075.0	2018.1
19.64	2060.0	2017.8
19.65	2055.0	2017.4
19.66	2112.0	2017.1
19.67	2086.0	2016.7
19.68	2050.0	2016.4
19.69	2040.0	2016.0
19.7	2052.0	2015.7
19.71	2080.0	2015.3
19.72	2109.0	2015.0
19.73	2154.0	2014.6
19.74	2151.0	2014.3
19.75	2091.0	2013.9
19.76	2069.0	2013.6
19.77	2079.0	2013.2
19.78	2050.0	2012.8
19.79	2015.0	2012.5
19.8	1993.0	2012.1
19.81	2032.0	2011.7
19.82	2053.0	2011.3
19.83	2066.0	2011.0
19.84	2089.0	2010.6
19.85	2084.0	2010.2
19.86	2049.0	2009.8
19.87	2054.0	2009.4
19.88	2035.0	2009.0
19.89	2022.0	2008.6
19.9	2065.0	2008.3
19.91	2079.0	2007.9
19.92	2073.0	2007.5
19.93	2088.0	2007.1
19.94	2050.0	2006.7
19.95	2021.0	2006.3
19.96	2064.0	2005.9
19.97	2072.0	2005.4
19.98	2033.0	2005.0
19.99	2028.0	2004.6
20.0	2042.0	2004.2
