Thick_MnF2_0p6mm_pel
Wavelength = 1.54059 Ã… (Cu)
Angle	I(o)	I(b)
10.0	1822.0	1834.0
10.01	1838.0	1835.5
10.02	1847.0	1837.1
10.03	1863.0	1838.7
10.04	1842.0	1840.3
10.05	1852.0	1841.8
10.06	1889.0	1843.4
10.07	1906.0	1845.0
10.08	1937.0	1846.6
10.09	1899.0	1848.1
10.1	1919.0	1849.7
10.11	1854.0	1851.3
10.12	1860.0	1852.9
10.13	1881.0	1854.4
10.14	1882.0	1856.0
10.15	1886.0	1857.6
10.16	1884.0	1859.2
10.17	1896.0	1860.7
10.18	1936.0	1862.3
10.19	1966.0	1863.9
10.2	1941.0	1865.5
10.21	1905.0	1867.0
10.22	1951.0	1868.6
10.23	1953.0	1870.2
10.24	1887.0	1871.8
10.25	1902.0	1873.3
10.26	1912.0	1874.9
10.27	1918.0	1876.5
10.28	1870.0	1878.1
10.29	1922.0	1879.7
10.3	1965.0	1881.2
10.31	1921.0	1882.8
10.32	1931.0	1884.4
10.33	1933.0	1886.0
10.34	1978.0	1887.5
10.35	1928.0	1889.1
10.36	1933.0	1890.7
10.37	1961.0	1892.3
10.38	1955.0	1893.9
10.39	1967.0	1895.4
10.4	1925.0	1897.0
10.41	1891.0	1898.6
10.42	1890.0	1900.2
10.43	1907.0	1901.8
10.44	1943.0	1903.3
10.45	1918.0	1904.9
10.46	1915.0	1906.5
10.47	1885.0	1908.1
10.48	1905.0	1909.7
10.49	1960.0	1911.3
10.5	1955.0	1912.8
10.51	1948.0	1914.4
10.52	1999.0	1916.0
10.53	1956.0	1917.6
10.54	1960.0	1919.2
10.55	2008.0	1920.8
10.56	1970.0	1922.3
10.57	1979.0	1923.9
10.58	1958.0	1925.5
10.59	1979.0	1927.1
10.6	1969.0	1928.7
10.61	1947.0	1930.3
10.62	1930.0	1931.9
10.63	1963.0	1933.5
10.64	1985.0	1935.1
10.65	2013.0	1936.6
10.66	1977.0	1938.2
10.67	1952.0	1939.8
10.68	2029.0	1941.4
10.69	2017.0	1943.0
10.7	1976.0	1944.6
10.71	1956.0	1946.2
10.72	2013.0	1947.8
10.73	1956.0	1949.4
10.74	1993.0	1951.0
10.75	1963.0	1952.6
10.76	1937.0	1954.2
10.77	1984.0	1955.8
10.78	1974.0	1957.4
10.79	1973.0	1959.0
10.8	1982.0	1960.6
10.81	2002.0	1962.2
10.82	1950.0	1963.8
10.83	2000.0	1965.4
10.84	2013.0	1967.0
10.85	2040.0	1968.6
10.86	2010.0	1970.2
10.87	2024.0	1971.8
10.88	2047.0	1973.4
10.89	1980.0	1975.0
10.9	2011.0	1976.6
10.91	2021.0	1978.2
10.92	2042.0	1979.8
10.93	2000.0	1981.4
10.94	2028.0	1983.0
10.95	2000.0	1984.6
10.96	1996.0	1986.2
10.97	2012.0	1987.8
10.98	1973.0	1989.5
10.99	2011.0	1991.1
11.0	2040.0	1992.7
11.01	2057.0	1994.3
11.02	2049.0	1995.9
11.03	2022.0	1997.5
11.04	2024.0	1999.1
11.05	2030.0	2000.8
11.06	1970.0	2002.4
11.07	2040.0	2004.0
11.08	1990.0	2005.6
11.09	2024.0	2007.2
11.1	2034.0	2008.9
11.11	2015.0	2010.5
11.12	2008.0	2012.1
11.13	2009.0	2013.7
11.14	2075.0	2015.3
11.15	2073.0	2017.0
11.16	2118.0	2018.6
11.17	2108.0	2020.2
11.18	2034.0	2021.9
11.19	2034.0	2023.5
11.2	2036.0	2025.1
11.21	2069.0	2026.7
11.22	2089.0	2028.4
11.23	2011.0	2030.0
11.24	1996.0	2031.6
11.25	2075.0	2033.3
11.26	2079.0	2034.9
11.27	2076.0	2036.5
11.28	2042.0	2038.2
11.29	2086.0	2039.8
11.3	2108.0	2041.4
11.31	2111.0	2043.1
11.32	2177.0	2044.7
11.33	2097.0	2046.3
11.34	2068.0	2048.0
11.35	2075.0	2049.6
11.36	2032.0	2051.3
11.37	2051.0	2052.9
11.38	2094.0	2054.5
11.39	2127.0	2056.2
11.4	2077.0	2057.8
11.41	2099.0	2059.5
11.42	2046.0	2061.1
11.43	2026.0	2062.7
11.44	2074.0	2064.4
11.45	2082.0	2066.0
11.46	2086.0	2067.7
11.47	2065.0	2069.3
11.48	2056.0	2071.0
11.49	2097.0	2072.6
11.5	2124.0	2074.3
11.51	2126.0	2075.9
11.52	2137.0	2077.5
11.53	2147.0	2079.2
11.54	2118.0	2080.8
11.55	2085.0	2082.5
11.56	2136.0	2084.1
11.57	2135.0	2085.8
11.58	2142.0	2087.4
11.59	2151.0	2089.1
11.6	2109.0	2090.7
11.61	2057.0	2092.4
11.62	2086.0	2094.0
11.63	2047.0	2095.7
11.64	2148.0	2097.3
11.65	2098.0	2099.0
11.66	2117.0	2100.6
11.67	2104.0	2102.3
11.68	2142.0	2103.9
11.69	2137.0	2105.6
11.7	2165.0	2107.3
11.71	2221.0	2108.9
11.72	2182.0	2110.6
11.73	2154.0	2112.2
11.74	2106.0	2113.9
11.75	2117.0	2115.5
11.76	2130.0	2117.2
11.77	2161.0	2118.8
11.78	2176.0	2120.5
11.79	2178.0	2122.1
11.8	2164.0	2123.8
11.81	2130.0	2125.5
11.82	2071.0	2127.1
11.83	2135.0	2128.8
11.84	2170.0	2130.4
11.85	2165.0	2132.1
11.86	2173.0	2133.7
11.87	2191.0	2135.4
11.88	2136.0	2137.0
11.89	2151.0	2138.7
11.9	2169.0	2140.4
11.91	2173.0	2142.0
11.92	2162.0	2143.7
11.93	2139.0	2145.3
11.94	2160.0	2147.0
11.95	2159.0	2148.6
11.96	2158.0	2150.3
11.97	2150.0	2151.9
11.98	2188.0	2153.6
11.99	2188.0	2155.3
12.0	2131.0	2156.9
12.01	2174.0	2158.6
12.02	2216.0	2160.2
12.03	2141.0	2161.9
12.04	2099.0	2163.5
12.05	2133.0	2165.2
12.06	2185.0	2166.9
12.07	2218.0	2168.5
12.08	2212.0	2170.2
12.09	2186.0	2171.8
12.1	2181.0	2173.5
12.11	2192.0	2175.1
12.12	2159.0	2176.8
12.13	2124.0	2178.4
12.14	2124.0	2180.1
12.15	2145.0	2181.8
12.16	2174.0	2183.4
12.17	2219.0	2185.1
12.18	2187.0	2186.7
12.19	2126.0	2188.4
12.2	2127.0	2190.0
12.21	2175.0	2191.7
12.22	2172.0	2193.3
12.23	2151.0	2195.0
12.24	2152.0	2196.6
12.25	2162.0	2198.3
12.26	2211.0	2200.0
12.27	2242.0	2201.6
12.28	2214.0	2203.3
12.29	2171.0	2204.9
12.3	2256.0	2206.6
12.31	2267.0	2208.2
12.32	2268.0	2209.9
12.33	2202.0	2211.5
12.34	2189.0	2213.2
12.35	2196.0	2214.8
12.36	2198.0	2216.5
12.37	2192.0	2218.1
12.38	2198.0	2219.8
12.39	2232.0	2221.4
12.4	2246.0	2223.1
12.41	2264.0	2224.7
12.42	2293.0	2226.4
12.43	2257.0	2228.0
12.44	2208.0	2229.7
12.45	2191.0	2231.3
12.46	2161.0	2232.9
12.47	2196.0	2234.6
12.48	2239.0	2236.2
12.49	2237.0	2237.9
12.5	2236.0	2239.5
12.51	2287.0	2241.2
12.52	2267.0	2242.8
12.53	2210.0	2244.5
12.54	2242.0	2246.1
12.55	2285.0	2247.7
12.56	2277.0	2249.4
12.57	2262.0	2251.0
12.58	2209.0	2252.7
12.59	2230.0	2254.3
12.6	2263.0	2255.9
12.61	2242.0	2257.6
12.62	2235.0	2259.2
12.63	2253.0	2260.9
12.64	2251.0	2262.5
12.65	2280.0	2264.1
12.66	2320.0	2265.8
12.67	2296.0	2267.4
12.68	2259.0	2269.0
12.69	2227.0	2270.7
12.7	2231.0	2272.3
12.71	2286.0	2273.9
12.72	2309.0	2275.6
12.73	2335.0	2277.2
12.74	2311.0	2278.8
12.75	2214.0	2280.5
12.76	2201.0	2282.1
12.77	2253.0	2283.7
12.78	2295.0	2285.3
12.79	2292.0	2287.0
12.8	2298.0	2288.6
12.81	2299.0	2290.2
12.82	2234.0	2291.8
12.83	2241.0	2293.5
12.84	2263.0	2295.1
12.85	2309.0	2296.7
12.86	2311.0	2298.3
12.87	2351.0	2299.9
12.88	2339.0	2301.6
12.89	2288.0	2303.2
12.9	2290.0	2304.8
12.91	2278.0	2306.4
12.92	2289.0	2308.0
12.93	2332.0	2309.7
12.94	2338.0	2311.3
12.95	2319.0	2312.9
12.96	2343.0	2314.5
12.97	2304.0	2316.1
12.98	2302.0	2317.7
12.99	2307.0	2319.3
13.0	2281.0	2320.9
13.01	2329.0	2322.5
13.02	2339.0	2324.2
13.03	2295.0	2325.8
13.04	2252.0	2327.4
13.05	2371.0	2329.0
13.06	2369.0	2330.6
13.07	2312.0	2332.2
13.08	2327.0	2333.8
13.09	2334.0	2335.4
13.1	2351.0	2337.0
13.11	2294.0	2338.6
13.12	2351.0	2340.2
13.13	2405.0	2341.8
13.14	2365.0	2343.4
13.15	2334.0	2345.0
13.16	2336.0	2346.6
13.17	2316.0	2348.1
13.18	2376.0	2349.7
13.19	2468.0	2351.3
13.2	2410.0	2352.9
13.21	2362.0	2354.5
13.22	2383.0	2356.1
13.23	2432.0	2357.7
13.24	2362.0	2359.3
13.25	2381.0	2360.8
13.26	2354.0	2362.4
13.27	2339.0	2364.0
13.28	2312.0	2365.6
13.29	2350.0	2367.2
13.3	2360.0	2368.7
13.31	2357.0	2370.3
13.32	2359.0	2371.9
13.33	2379.0	2373.5
13.34	2340.0	2375.0
13.35	2413.0	2376.6
13.36	2431.0	2378.2
13.37	2403.0	2379.8
13.38	2367.0	2381.3
13.39	2354.0	2382.9
13.4	2412.0	2384.5
13.41	2448.0	2386.0
13.42	2436.0	2387.6
13.43	2425.0	2389.2
13.44	2434.0	2390.7
13.45	2406.0	2392.3
13.46	2398.0	2393.9
13.47	2428.0	2395.4
13.48	2429.0	2397.0
13.49	2456.0	2398.5
13.5	2457.0	2400.1
13.51	2413.0	2401.6
13.52	2456.0	2403.2
13.53	2392.0	2404.7
13.54	2404.0	2406.3
13.55	2423.0	2407.8
13.56	2419.0	2409.4
13.57	2457.0	2410.9
13.58	2472.0	2412.5
13.59	2413.0	2414.0
13.6	2387.0	2415.6
13.61	2413.0	2417.1
13.62	2470.0	2418.7
13.63	2524.0	2420.2
13.64	2510.0	2421.7
13.65	2520.0	2423.3
13.66	2519.0	2424.8
13.67	2488.0	2426.4
13.68	2509.0	2427.9
13.69	2540.0	2429.4
13.7	2466.0	2431.0
13.71	2424.0	2432.5
13.72	2443.0	2434.0
13.73	2446.0	2435.6
13.74	2458.0	2437.1
13.75	2460.0	2438.6
13.76	2482.0	2440.1
13.77	2449.0	2441.7
13.78	2438.0	2443.2
13.79	2453.0	2444.7
13.8	2490.0	2446.2
13.81	2487.0	2447.7
13.82	2498.0	2449.3
13.83	2493.0	2450.8
13.84	2487.0	2452.3
13.85	2494.0	2453.8
13.86	2489.0	2455.3
13.87	2436.0	2456.8
13.88	2459.0	2458.3
13.89	2504.0	2459.9
13.9	2466.0	2461.4
13.91	2486.0	2462.9
13.92	2516.0	2464.4
13.93	2483.0	2465.9
13.94	2507.0	2467.4
13.95	2486.0	2468.9
13.96	2509.0	2470.4
13.97	2533.0	2471.9
13.98	2526.0	2473.4
13.99	2501.0	2474.9
14.0	2495.0	2476.4
14.01	2554.0	2477.9
14.02	2546.0	2479.4
14.03	2521.0	2480.9
14.04	2522.0	2482.4
14.05	2521.0	2483.8
14.06	2479.0	2485.3
14.07	2496.0	2486.8
14.08	2510.0	2488.3
14.09	2561.0	2489.8
14.1	2599.0	2491.3
14.11	2557.0	2492.7
14.12	2533.0	2494.2
14.13	2527.0	2495.7
14.14	2562.0	2497.2
14.15	2543.0	2498.7
14.16	2496.0	2500.1
14.17	2534.0	2501.6
14.18	2581.0	2503.1
14.19	2560.0	2504.6
14.2	2514.0	2506.0
14.21	2580.0	2507.5
14.22	2611.0	2509.0
14.23	2599.0	2510.4
14.24	2582.0	2511.9
14.25	2597.0	2513.4
14.26	2592.0	2514.8
14.27	2582.0	2516.3
14.28	2601.0	2517.7
14.29	2588.0	2519.2
14.3	2588.0	2520.7
14.31	2617.0	2522.1
14.32	2615.0	2523.6
14.33	2592.0	2525.0
14.34	2560.0	2526.5
14.35	2547.0	2527.9
14.36	2560.0	2529.4
14.37	2505.0	2530.8
14.38	2575.0	2532.3
14.39	2581.0	2533.7
14.4	2610.0	2535.1
14.41	2623.0	2536.6
14.42	2638.0	2538.0
14.43	2627.0	2539.5
14.44	2585.0	2540.9
14.45	2597.0	2542.3
14.46	2622.0	2543.8
14.47	2576.0	2545.2
14.48	2558.0	2546.6
14.49	2585.0	2548.1
14.5	2577.0	2549.5
14.51	2596.0	2550.9
14.52	2643.0	2552.3
14.53	2673.0	2553.8
14.54	2699.0	2555.2
14.55	2666.0	2556.6
14.56	2628.0	2558.0
14.57	2686.0	2559.5
14.58	2648.0	2560.9
14.59	2608.0	2562.3
14.6	2600.0	2563.7
14.61	2605.0	2565.1
14.62	2677.0	2566.5
14.63	2651.0	2567.9
14.64	2606.0	2569.3
14.65	2602.0	2570.8
14.66	2638.0	2572.2
14.67	2672.0	2573.6
14.68	2661.0	2575.0
14.69	2626.0	2576.4
14.7	2571.0	2577.8
14.71	2562.0	2579.2
14.72	2562.0	2580.6
14.73	2593.0	2582.0
14.74	2648.0	2583.4
14.75	2658.0	2584.7
14.76	2609.0	2586.1
14.77	2576.0	2587.5
14.78	2572.0	2588.9
14.79	2628.0	2590.3
14.8	2610.0	2591.7
14.81	2609.0	2593.1
14.82	2618.0	2594.5
14.83	2617.0	2595.8
14.84	2584.0	2597.2
14.85	2561.0	2598.6
14.86	2610.0	2600.0
14.87	2617.0	2601.3
14.88	2622.0	2602.7
14.89	2633.0	2604.1
14.9	2656.0	2605.5
14.91	2639.0	2606.8
14.92	2608.0	2608.2
14.93	2620.0	2609.6
14.94	2687.0	2610.9
14.95	2673.0	2612.3
14.96	2629.0	2613.6
14.97	2637.0	2615.0
14.98	2636.0	2616.4
14.99	2628.0	2617.7
15.0	2659.0	2619.1
15.01	2650.0	2620.4
15.02	2601.0	2621.8
15.03	2621.0	2623.1
15.04	2611.0	2624.5
15.05	2611.0	2625.8
15.06	2614.0	2627.2
15.07	2648.0	2628.5
15.08	2657.0	2629.9
15.09	2657.0	2631.2
15.1	2679.0	2632.5
15.11	2682.0	2633.9
15.12	2671.0	2635.2
15.13	2673.0	2636.6
15.14	2685.0	2637.9
15.15	2693.0	2639.2
15.16	2662.0	2640.5
15.17	2660.0	2641.9
15.18	2625.0	2643.2
15.19	2593.0	2644.5
15.2	2591.0	2645.8
15.21	2645.0	2647.2
15.22	2685.0	2648.5
15.23	2669.0	2649.8
15.24	2667.0	2651.1
15.25	2711.0	2652.4
15.26	2735.0	2653.8
15.27	2711.0	2655.1
15.28	2690.0	2656.4
15.29	2685.0	2657.7
15.3	2707.0	2659.0
15.31	2724.0	2660.3
15.32	2720.0	2661.6
15.33	2682.0	2662.9
15.34	2676.0	2664.2
15.35	2667.0	2665.5
15.36	2638.0	2666.8
15.37	2608.0	2668.1
15.38	2634.0	2669.4
15.39	2671.0	2670.7
15.4	2674.0	2672.0
15.41	2691.0	2673.3
15.42	2718.0	2674.6
15.43	2707.0	2675.8
15.44	2737.0	2677.1
15.45	2715.0	2678.4
15.46	2686.0	2679.7
15.47	2676.0	2681.0
15.48	2666.0	2682.2
15.49	2680.0	2683.5
15.5	2713.0	2684.8
15.51	2712.0	2686.1
15.52	2697.0	2687.3
15.53	2694.0	2688.6
15.54	2689.0	2689.9
15.55	2671.0	2691.1
15.56	2684.0	2692.4
15.57	2648.0	2693.7
15.58	2648.0	2694.9
15.59	2664.0	2696.2
15.6	2686.0	2697.5
15.61	2705.0	2698.7
15.62	2694.0	2700.0
15.63	2662.0	2701.2
15.64	2661.0	2702.5
15.65	2668.0	2703.7
15.66	2675.0	2705.0
15.67	2672.0	2706.2
15.68	2689.0	2707.4
15.69	2697.0	2708.7
15.7	2674.0	2709.9
15.71	2685.0	2711.2
15.72	2732.0	2712.4
15.73	2770.0	2713.6
15.74	2771.0	2714.9
15.75	2753.0	2716.1
15.76	2746.0	2717.3
15.77	2703.0	2718.6
15.78	2674.0	2719.8
15.79	2720.0	2721.0
15.8	2735.0	2722.2
15.81	2739.0	2723.5
15.82	2754.0	2724.7
15.83	2787.0	2725.9
15.84	2800.0	2727.1
15.85	2824.0	2728.3
15.86	2780.0	2729.5
15.87	2730.0	2730.7
15.88	2766.0	2732.0
15.89	2757.0	2733.2
15.9	2749.0	2734.4
15.91	2779.0	2735.6
15.92	2791.0	2736.8
15.93	2785.0	2738.0
15.94	2815.0	2739.2
15.95	2814.0	2740.4
15.96	2755.0	2741.6
15.97	2704.0	2742.8
15.98	2734.0	2743.9
15.99	2755.0	2745.1
16.0	2745.0	2746.3
16.01	2772.0	2747.5
16.02	2764.0	2748.7
16.03	2777.0	2749.9
16.04	2752.0	2751.1
16.05	2791.0	2752.2
16.06	2794.0	2753.4
16.07	2760.0	2754.6
16.08	2745.0	2755.8
16.09	2779.0	2756.9
16.1	2787.0	2758.1
16.11	2780.0	2759.3
16.12	2800.0	2760.4
16.13	2779.0	2761.6
16.14	2753.0	2762.7
16.15	2754.0	2763.9
16.16	2763.0	2765.1
16.17	2751.0	2766.2
16.18	2747.0	2767.4
16.19	2788.0	2768.5
16.2	2830.0	2769.7
16.21	2824.0	2770.8
16.22	2780.0	2772.0
16.23	2754.0	2773.1
16.24	2760.0	2774.3
16.25	2808.0	2775.4
16.26	2867.0	2776.5
16.27	2850.0	2777.7
16.28	2817.0	2778.8
16.29	2824.0	2779.9
16.3	2855.0	2781.1
16.31	2852.0	2782.2
16.32	2796.0	2783.3
16.33	2777.0	2784.5
16.34	2827.0	2785.6
16.35	2821.0	2786.7
16.36	2813.0	2787.8
16.37	2844.0	2788.9
16.38	2843.0	2790.1
16.39	2816.0	2791.2
16.4	2804.0	2792.3
16.41	2877.0	2793.4
16.42	2904.0	2794.5
16.43	2900.0	2795.6
16.44	2879.0	2796.7
16.45	2821.0	2797.8
16.46	2812.0	2798.9
16.47	2822.0	2800.0
16.48	2820.0	2801.1
16.49	2840.0	2802.2
16.5	2892.0	2803.3
16.51	2867.0	2804.4
16.52	2841.0	2805.5
16.53	2871.0	2806.6
16.54	2897.0	2807.6
16.55	2890.0	2808.7
16.56	2875.0	2809.8
16.57	2882.0	2810.9
16.58	2858.0	2812.0
16.59	2851.0	2813.0
16.6	2894.0	2814.1
16.61	2886.0	2815.2
16.62	2893.0	2816.2
16.63	2921.0	2817.3
16.64	2928.0	2818.4
16.65	2892.0	2819.4
16.66	2912.0	2820.5
16.67	2899.0	2821.6
16.68	2865.0	2822.6
16.69	2858.0	2823.7
16.7	2877.0	2824.7
16.71	2857.0	2825.8
16.72	2884.0	2826.8
16.73	2896.0	2827.9
16.74	2861.0	2828.9
16.75	2862.0	2829.9
16.76	2893.0	2831.0
16.77	2898.0	2832.0
16.78	2910.0	2833.1
16.79	2903.0	2834.1
16.8	2869.0	2835.1
16.81	2889.0	2836.2
16.82	2909.0	2837.2
16.83	2912.0	2838.2
16.84	2925.0	2839.2
16.85	2910.0	2840.2
16.86	2852.0	2841.3
16.87	2825.0	2842.3
16.88	2852.0	2843.3
16.89	2863.0	2844.3
16.9	2883.0	2845.3
16.91	2886.0	2846.3
16.92	2851.0	2847.3
16.93	2853.0	2848.3
16.94	2912.0	2849.3
16.95	2960.0	2850.3
16.96	2936.0	2851.3
16.97	2913.0	2852.3
16.98	2895.0	2853.3
16.99	2920.0	2854.3
17.0	2970.0	2855.3
17.01	2956.0	2856.3
17.02	2918.0	2857.3
17.03	2911.0	2858.2
17.04	2908.0	2859.2
17.05	2908.0	2860.2
17.06	2893.0	2861.2
17.07	2933.0	2862.1
17.08	2989.0	2863.1
17.09	2997.0	2864.1
17.1	2959.0	2865.1
17.11	2930.0	2866.0
17.12	2949.0	2867.0
17.13	2954.0	2867.9
17.14	2934.0	2868.9
17.15	2937.0	2869.8
17.16	2949.0	2870.8
17.17	2958.0	2871.7
17.18	2941.0	2872.7
17.19	2912.0	2873.6
17.2	2953.0	2874.6
17.21	3007.0	2875.5
17.22	3010.0	2876.5
17.23	3009.0	2877.4
17.24	2983.0	2878.3
17.25	2955.0	2879.3
17.26	2973.0	2880.2
17.27	3000.0	2881.1
17.28	2987.0	2882.1
17.29	2970.0	2883.0
17.3	2979.0	2883.9
17.31	2981.0	2884.8
17.32	3001.0	2885.7
17.33	2994.0	2886.6
17.34	2957.0	2887.6
17.35	2954.0	2888.5
17.36	2966.0	2889.4
17.37	3003.0	2890.3
17.38	3021.0	2891.2
17.39	2979.0	2892.1
17.4	2952.0	2893.0
17.41	2967.0	2893.9
17.42	2992.0	2894.8
17.43	3000.0	2895.6
17.44	3007.0	2896.5
17.45	3029.0	2897.4
17.46	3036.0	2898.3
17.47	3009.0	2899.2
17.48	2983.0	2900.1
17.49	2995.0	2900.9
17.5	3011.0	2901.8
17.51	3004.0	2902.7
17.52	3010.0	2903.6
17.53	3015.0	2904.4
17.54	2989.0	2905.3
17.55	2971.0	2906.1
17.56	3045.0	2907.0
17.57	3099.0	2907.9
17.58	3036.0	2908.7
17.59	2978.0	2909.6
17.6	2969.0	2910.4
17.61	2981.0	2911.3
17.62	3015.0	2912.1
17.63	3063.0	2913.0
17.64	3085.0	2913.8
17.65	3059.0	2914.6
17.66	3024.0	2915.5
17.67	3042.0	2916.3
17.68	3038.0	2917.1
17.69	3013.0	2918.0
17.7	3012.0	2918.8
17.71	3047.0	2919.6
17.72	3059.0	2920.4
17.73	3042.0	2921.2
17.74	3107.0	2922.1
17.75	3151.0	2922.9
17.76	3159.0	2923.7
17.77	3132.0	2924.5
17.78	3077.0	2925.3
17.79	3060.0	2926.1
17.8	3068.0	2926.9
17.81	3081.0	2927.7
17.82	3074.0	2928.5
17.83	3083.0	2929.3
17.84	3094.0	2930.1
17.85	3087.0	2930.9
17.86	3098.0	2931.6
17.87	3117.0	2932.4
17.88	3124.0	2933.2
17.89	3118.0	2934.0
17.9	3139.0	2934.8
17.91	3163.0	2935.5
17.92	3137.0	2936.3
17.93	3118.0	2937.1
17.94	3136.0	2937.8
17.95	3148.0	2938.6
17.96	3156.0	2939.4
17.97	3206.0	2940.1
17.98	3207.0	2940.9
17.99	3112.0	2941.6
18.0	3093.0	2942.4
18.01	3093.0	2943.1
18.02	3076.0	2943.9
18.03	3110.0	2944.6
18.04	3116.0	2945.3
18.05	3121.0	2946.1
18.06	3132.0	2946.8
18.07	3130.0	2947.5
18.08	3108.0	2948.3
18.09	3116.0	2949.0
18.1	3139.0	2949.7
18.11	3158.0	2950.4
18.12	3188.0	2951.2
18.13	3179.0	2951.9
18.14	3165.0	2952.6
18.15	3181.0	2953.3
18.16	3172.0	2954.0
18.17	3120.0	2954.7
18.18	3120.0	2955.4
18.19	3171.0	2956.1
18.2	3175.0	2956.8
18.21	3180.0	2957.5
18.22	3195.0	2958.2
18.23	3203.0	2958.9
18.24	3173.0	2959.6
18.25	3120.0	2960.2
18.26	3127.0	2960.9
18.27	3180.0	2961.6
18.28	3247.0	2962.3
18.29	3239.0	2963.0
18.3	3219.0	2963.6
18.31	3213.0	2964.3
18.32	3184.0	2965.0
18.33	3141.0	2965.6
18.34	3167.0	2966.3
18.35	3191.0	2966.9
18.36	3179.0	2967.6
18.37	3197.0	2968.2
18.38	3209.0	2968.9
18.39	3246.0	2969.5
18.4	3255.0	2970.2
18.41	3208.0	2970.8
18.42	3208.0	2971.5
18.43	3253.0	2972.1
18.44	3283.0	2972.7
18.45	3326.0	2973.4
18.46	3328.0	2974.0
18.47	3290.0	2974.6
18.48	3225.0	2975.2
18.49	3222.0	2975.8
18.5	3253.0	2976.5
18.51	3241.0	2977.1
18.52	3210.0	2977.7
18.53	3204.0	2978.3
18.54	3227.0	2978.9
18.55	3277.0	2979.5
18.56	3295.0	2980.1
18.57	3269.0	2980.7
18.58	3279.0	2981.3
18.59	3300.0	2981.9
18.6	3302.0	2982.5
18.61	3324.0	2983.0
18.62	3323.0	2983.6
18.63	3331.0	2984.2
18.64	3321.0	2984.8
18.65	3309.0	2985.3
18.66	3259.0	2985.9
18.67	3261.0	2986.5
18.68	3257.0	2987.0
18.69	3240.0	2987.6
18.7	3269.0	2988.2
18.71	3279.0	2988.7
18.72	3286.0	2989.3
18.73	3303.0	2989.8
18.74	3306.0	2990.4
18.75	3267.0	2990.9
18.76	3237.0	2991.5
18.77	3283.0	2992.0
18.78	3283.0	2992.5
18.79	3294.0	2993.1
18.8	3366.0	2993.6
18.81	3343.0	2994.1
18.82	3360.0	2994.7
18.83	3427.0	2995.2
18.84	3354.0	2995.7
18.85	3271.0	2996.2
18.86	3283.0	2996.7
18.87	3345.0	2997.2
18.88	3364.0	2997.7
18.89	3379.0	2998.2
18.9	3420.0	2998.7
18.91	3422.0	2999.2
18.92	3363.0	2999.7
18.93	3377.0	3000.2
18.94	3393.0	3000.7
18.95	3347.0	3001.2
18.96	3323.0	3001.7
18.97	3316.0	3002.2
18.98	3323.0	3002.6
18.99	3346.0	3003.1
19.0	3331.0	3003.6
19.01	3369.0	3004.1
19.02	3383.0	3004.5
19.03	3404.0	3005.0
19.04	3440.0	3005.4
19.05	3470.0	3005.9
19.06	3397.0	3006.3
19.07	3379.0	3006.8
19.08	3434.0	3007.2
19.09	3450.0	3007.7
19.1	3471.0	3008.1
19.11	3471.0	3008.6
19.12	3462.0	3009.0
19.13	3404.0	3009.4
19.14	3337.0	3009.9
19.15	3371.0	3010.3
19.16	3416.0	3010.7
19.17	3379.0	3011.1
19.18	3412.0	3011.6
19.19	3419.0	3012.0
19.2	3381.0	3012.4
19.21	3399.0	3012.8
19.22	3415.0	3013.2
19.23	3449.0	3013.6
19.24	3453.0	3014.0
19.25	3443.0	3014.4
19.26	3492.0	3014.8
19.27	3486.0	3015.2
19.28	3416.0	3015.6
19.29	3428.0	3015.9
19.3	3439.0	3016.3
19.31	3475.0	3016.7
19.32	3458.0	3017.1
19.33	3416.0	3017.4
19.34	3420.0	3017.8
19.35	3433.0	3018.2
19.36	3462.0	3018.5
19.37	3520.0	3018.9
19.38	3487.0	3019.2
19.39	3425.0	3019.6
19.4	3365.0	3019.9
19.41	3367.0	3020.3
19.42	3490.0	3020.6
19.43	3553.0	3021.0
19.44	3521.0	3021.3
19.45	3519.0	3021.6
19.46	3479.0	3022.0
19.47	3416.0	3022.3
19.48	3413.0	3022.6
19.49	3429.0	3022.9
19.5	3499.0	3023.3
19.51	3555.0	3023.6
19.52	3507.0	3023.9
19.53	3456.0	3024.2
19.54	3452.0	3024.5
19.55	3422.0	3024.8
19.56	3441.0	3025.1
19.57	3412.0	3025.4
19.58	3408.0	3025.7
19.59	3414.0	3026.0
19.6	3414.0	3026.3
19.61	3462.0	3026.5
19.62	3500.0	3026.8
19.63	3519.0	3027.1
19.64	3552.0	3027.4
19.65	3512.0	3027.6
19.66	3477.0	3027.9
19.67	3537.0	3028.2
19.68	3526.0	3028.4
19.69	3484.0	3028.7
19.7	3516.0	3028.9
19.71	3508.0	3029.2
19.72	3493.0	3029.4
19.73	3535.0	3029.7
19.74	3538.0	3029.9
19.75	3485.0	3030.1
19.76	3475.0	3030.4
19.77	3484.0	3030.6
19.78	3492.0	3030.8
19.79	3517.0	3031.1
19.8	3530.0	3031.3
19.81	3537.0	3031.5
19.82	3538.0	3031.7
19.83	3499.0	3031.9
19.84	3521.0	3032.1
19.85	3519.0	3032.3
19.86	3554.0	3032.5
19.87	3536.0	3032.7
19.88	3497.0	3032.9
19.89	3463.0	3033.1
19.9	3478.0	3033.3
19.91	3531.0	3033.5
19.92	3596.0	3033.7
19.93	3631.0	3033.8
19.94	3573.0	3034.0
19.95	3580.0	3034.2
19.96	3582.0	3034.3
19.97	3527.0	3034.5
19.98	3488.0	3034.7
19.99	3527.0	3034.8
20.0	3529.0	3035.0
