Thick_TiO2_0p6mm_pel
Wavelength = 1.54059 Ã… (Cu)
Angle	I(o)	I(b)
10.0	2363.0	2346.7
10.01	2369.0	2347.0
10.02	2360.0	2347.3
10.03	2343.0	2347.6
10.04	2334.0	2347.9
10.05	2282.0	2348.1
10.06	2311.0	2348.4
10.07	2353.0	2348.7
10.08	2344.0	2349.0
10.09	2352.0	2349.3
10.1	2404.0	2349.6
10.11	2360.0	2349.8
10.12	2285.0	2350.1
10.13	2325.0	2350.4
10.14	2315.0	2350.7
10.15	2389.0	2351.0
10.16	2344.0	2351.2
10.17	2323.0	2351.5
10.18	2294.0	2351.8
10.19	2304.0	2352.1
10.2	2351.0	2352.4
10.21	2349.0	2352.7
10.22	2373.0	2353.0
10.23	2415.0	2353.2
10.24	2389.0	2353.5
10.25	2353.0	2353.8
10.26	2377.0	2354.1
10.27	2385.0	2354.4
10.28	2369.0	2354.7
10.29	2362.0	2355.0
10.3	2395.0	2355.3
10.31	2290.0	2355.6
10.32	2283.0	2355.8
10.33	2322.0	2356.1
10.34	2360.0	2356.4
10.35	2353.0	2356.7
10.36	2407.0	2357.0
10.37	2406.0	2357.3
10.38	2390.0	2357.6
10.39	2321.0	2357.9
10.4	2284.0	2358.2
10.41	2304.0	2358.5
10.42	2310.0	2358.8
10.43	2380.0	2359.1
10.44	2380.0	2359.4
10.45	2299.0	2359.7
10.46	2311.0	2360.0
10.47	2349.0	2360.3
10.48	2334.0	2360.6
10.49	2337.0	2360.9
10.5	2406.0	2361.3
10.51	2391.0	2361.6
10.52	2360.0	2361.9
10.53	2402.0	2362.2
10.54	2356.0	2362.5
10.55	2393.0	2362.8
10.56	2334.0	2363.1
10.57	2322.0	2363.5
10.58	2310.0	2363.8
10.59	2406.0	2364.1
10.6	2352.0	2364.4
10.61	2371.0	2364.8
10.62	2371.0	2365.1
10.63	2365.0	2365.4
10.64	2379.0	2365.7
10.65	2396.0	2366.1
10.66	2375.0	2366.4
10.67	2342.0	2366.7
10.68	2309.0	2367.1
10.69	2378.0	2367.4
10.7	2365.0	2367.8
10.71	2372.0	2368.1
10.72	2366.0	2368.4
10.73	2345.0	2368.8
10.74	2331.0	2369.1
10.75	2346.0	2369.5
10.76	2417.0	2369.8
10.77	2401.0	2370.2
10.78	2377.0	2370.5
10.79	2431.0	2370.9
10.8	2450.0	2371.2
10.81	2421.0	2371.6
10.82	2369.0	2372.0
10.83	2423.0	2372.3
10.84	2452.0	2372.7
10.85	2423.0	2373.1
10.86	2416.0	2373.4
10.87	2414.0	2373.8
10.88	2364.0	2374.2
10.89	2364.0	2374.6
10.9	2381.0	2374.9
10.91	2387.0	2375.3
10.92	2415.0	2375.7
10.93	2335.0	2376.1
10.94	2340.0	2376.5
10.95	2398.0	2376.9
10.96	2379.0	2377.3
10.97	2352.0	2377.6
10.98	2392.0	2378.0
10.99	2426.0	2378.4
11.0	2400.0	2378.8
11.01	2406.0	2379.2
11.02	2402.0	2379.7
11.03	2369.0	2380.1
11.04	2388.0	2380.5
11.05	2332.0	2380.9
11.06	2326.0	2381.3
11.07	2381.0	2381.7
11.08	2410.0	2382.1
11.09	2515.0	2382.6
11.1	2467.0	2383.0
11.11	2375.0	2383.4
11.12	2339.0	2383.9
11.13	2364.0	2384.3
11.14	2361.0	2384.7
11.15	2385.0	2385.2
11.16	2411.0	2385.6
11.17	2414.0	2386.1
11.18	2439.0	2386.5
11.19	2354.0	2387.0
11.2	2344.0	2387.4
11.21	2372.0	2387.9
11.22	2436.0	2388.3
11.23	2420.0	2388.8
11.24	2360.0	2389.3
11.25	2324.0	2389.7
11.26	2440.0	2390.2
11.27	2440.0	2390.7
11.28	2443.0	2391.2
11.29	2445.0	2391.7
11.3	2463.0	2392.1
11.31	2410.0	2392.6
11.32	2412.0	2393.1
11.33	2406.0	2393.6
11.34	2439.0	2394.1
11.35	2451.0	2394.6
11.36	2412.0	2395.1
11.37	2351.0	2395.6
11.38	2384.0	2396.1
11.39	2426.0	2396.7
11.4	2430.0	2397.2
11.41	2485.0	2397.7
11.42	2467.0	2398.2
11.43	2394.0	2398.7
11.44	2409.0	2399.3
11.45	2459.0	2399.8
11.46	2454.0	2400.3
11.47	2369.0	2400.9
11.48	2376.0	2401.4
11.49	2444.0	2402.0
11.5	2403.0	2402.5
11.51	2398.0	2403.1
11.52	2393.0	2403.6
11.53	2426.0	2404.2
11.54	2416.0	2404.7
11.55	2423.0	2405.3
11.56	2403.0	2405.9
11.57	2393.0	2406.4
11.58	2368.0	2407.0
11.59	2496.0	2407.6
11.6	2463.0	2408.2
11.61	2487.0	2408.8
11.62	2430.0	2409.3
11.63	2438.0	2409.9
11.64	2466.0	2410.5
11.65	2495.0	2411.1
11.66	2530.0	2411.7
11.67	2457.0	2412.3
11.68	2440.0	2412.9
11.69	2479.0	2413.5
11.7	2478.0	2414.1
11.71	2454.0	2414.8
11.72	2450.0	2415.4
11.73	2474.0	2416.0
11.74	2451.0	2416.6
11.75	2359.0	2417.3
11.76	2407.0	2417.9
11.77	2420.0	2418.5
11.78	2465.0	2419.2
11.79	2403.0	2419.8
11.8	2447.0	2420.4
11.81	2464.0	2421.1
11.82	2432.0	2421.7
11.83	2463.0	2422.4
11.84	2494.0	2423.0
11.85	2446.0	2423.7
11.86	2447.0	2424.4
11.87	2433.0	2425.0
11.88	2462.0	2425.7
11.89	2466.0	2426.4
11.9	2466.0	2427.1
11.91	2451.0	2427.7
11.92	2419.0	2428.4
11.93	2473.0	2429.1
11.94	2495.0	2429.8
11.95	2500.0	2430.5
11.96	2470.0	2431.2
11.97	2443.0	2431.9
11.98	2465.0	2432.6
11.99	2508.0	2433.3
12.0	2477.0	2434.0
12.01	2463.0	2434.7
12.02	2513.0	2435.4
12.03	2487.0	2436.1
12.04	2493.0	2436.9
12.05	2463.0	2437.6
12.06	2469.0	2438.3
12.07	2501.0	2439.0
12.08	2484.0	2439.8
12.09	2389.0	2440.5
12.1	2471.0	2441.3
12.11	2541.0	2442.0
12.12	2455.0	2442.8
12.13	2434.0	2443.5
12.14	2483.0	2444.3
12.15	2497.0	2445.0
12.16	2523.0	2445.8
12.17	2492.0	2446.5
12.18	2469.0	2447.3
12.19	2487.0	2448.1
12.2	2514.0	2448.9
12.21	2496.0	2449.6
12.22	2463.0	2450.4
12.23	2508.0	2451.2
12.24	2529.0	2452.0
12.25	2533.0	2452.8
12.26	2529.0	2453.6
12.27	2524.0	2454.4
12.28	2534.0	2455.2
12.29	2517.0	2456.0
12.3	2529.0	2456.8
12.31	2521.0	2457.6
12.32	2501.0	2458.4
12.33	2528.0	2459.2
12.34	2518.0	2460.1
12.35	2509.0	2460.9
12.36	2513.0	2461.7
12.37	2480.0	2462.5
12.38	2524.0	2463.4
12.39	2538.0	2464.2
12.4	2477.0	2465.1
12.41	2465.0	2465.9
12.42	2532.0	2466.8
12.43	2491.0	2467.6
12.44	2475.0	2468.5
12.45	2438.0	2469.3
12.46	2461.0	2470.2
12.47	2503.0	2471.0
12.48	2509.0	2471.9
12.49	2462.0	2472.8
12.5	2516.0	2473.7
12.51	2527.0	2474.5
12.52	2512.0	2475.4
12.53	2572.0	2476.3
12.54	2565.0	2477.2
12.55	2551.0	2478.1
12.56	2524.0	2479.0
12.57	2536.0	2479.9
12.58	2587.0	2480.8
12.59	2533.0	2481.7
12.6	2483.0	2482.6
12.61	2437.0	2483.5
12.62	2473.0	2484.4
12.63	2552.0	2485.4
12.64	2540.0	2486.3
12.65	2539.0	2487.2
12.66	2561.0	2488.1
12.67	2583.0	2489.1
12.68	2527.0	2490.0
12.69	2490.0	2491.0
12.7	2530.0	2491.9
12.71	2548.0	2492.9
12.72	2523.0	2493.8
12.73	2499.0	2494.8
12.74	2529.0	2495.7
12.75	2520.0	2496.7
12.76	2490.0	2497.6
12.77	2470.0	2498.6
12.78	2515.0	2499.6
12.79	2529.0	2500.6
12.8	2483.0	2501.5
12.81	2508.0	2502.5
12.82	2514.0	2503.5
12.83	2545.0	2504.5
12.84	2476.0	2505.5
12.85	2528.0	2506.5
12.86	2579.0	2507.5
12.87	2558.0	2508.5
12.88	2565.0	2509.5
12.89	2574.0	2510.5
12.9	2580.0	2511.5
12.91	2565.0	2512.6
12.92	2585.0	2513.6
12.93	2607.0	2514.6
12.94	2565.0	2515.6
12.95	2535.0	2516.7
12.96	2514.0	2517.7
12.97	2549.0	2518.7
12.98	2548.0	2519.8
12.99	2516.0	2520.8
13.0	2559.0	2521.9
13.01	2553.0	2522.9
13.02	2502.0	2524.0
13.03	2484.0	2525.1
13.04	2520.0	2526.1
13.05	2609.0	2527.2
13.06	2595.0	2528.3
13.07	2583.0	2529.3
13.08	2537.0	2530.4
13.09	2536.0	2531.5
13.1	2595.0	2532.6
13.11	2569.0	2533.7
13.12	2571.0	2534.8
13.13	2558.0	2535.9
13.14	2544.0	2537.0
13.15	2541.0	2538.1
13.16	2612.0	2539.2
13.17	2631.0	2540.3
13.18	2561.0	2541.4
13.19	2537.0	2542.5
13.2	2534.0	2543.6
13.21	2562.0	2544.8
13.22	2573.0	2545.9
13.23	2575.0	2547.0
13.24	2560.0	2548.2
13.25	2573.0	2549.3
13.26	2588.0	2550.4
13.27	2634.0	2551.6
13.28	2581.0	2552.7
13.29	2541.0	2553.9
13.3	2575.0	2555.1
13.31	2576.0	2556.2
13.32	2584.0	2557.4
13.33	2527.0	2558.5
13.34	2539.0	2559.7
13.35	2602.0	2560.9
13.36	2622.0	2562.1
13.37	2588.0	2563.3
13.38	2540.0	2564.4
13.39	2538.0	2565.6
13.4	2592.0	2566.8
13.41	2632.0	2568.0
13.42	2604.0	2569.2
13.43	2627.0	2570.4
13.44	2670.0	2571.6
13.45	2652.0	2572.9
13.46	2590.0	2574.1
13.47	2602.0	2575.3
13.48	2598.0	2576.5
13.49	2528.0	2577.7
13.5	2552.0	2579.0
13.51	2564.0	2580.2
13.52	2585.0	2581.4
13.53	2579.0	2582.7
13.54	2627.0	2583.9
13.55	2620.0	2585.1
13.56	2613.0	2586.4
13.57	2658.0	2587.6
13.58	2663.0	2588.9
13.59	2650.0	2590.1
13.6	2610.0	2591.4
13.61	2624.0	2592.7
13.62	2663.0	2593.9
13.63	2636.0	2595.2
13.64	2619.0	2596.5
13.65	2648.0	2597.7
13.66	2639.0	2599.0
13.67	2627.0	2600.3
13.68	2645.0	2601.6
13.69	2669.0	2602.8
13.7	2609.0	2604.1
13.71	2625.0	2605.4
13.72	2621.0	2606.7
13.73	2607.0	2608.0
13.74	2604.0	2609.3
13.75	2619.0	2610.6
13.76	2652.0	2611.9
13.77	2670.0	2613.2
13.78	2671.0	2614.5
13.79	2658.0	2615.8
13.8	2672.0	2617.1
13.81	2674.0	2618.4
13.82	2675.0	2619.8
13.83	2667.0	2621.1
13.84	2649.0	2622.4
13.85	2689.0	2623.7
13.86	2726.0	2625.0
13.87	2668.0	2626.4
13.88	2653.0	2627.7
13.89	2692.0	2629.0
13.9	2688.0	2630.4
13.91	2632.0	2631.7
13.92	2692.0	2633.0
13.93	2714.0	2634.4
13.94	2684.0	2635.7
13.95	2705.0	2637.1
13.96	2740.0	2638.4
13.97	2723.0	2639.7
13.98	2653.0	2641.1
13.99	2650.0	2642.4
14.0	2680.0	2643.8
14.01	2698.0	2645.2
14.02	2700.0	2646.5
14.03	2702.0	2647.9
14.04	2708.0	2649.2
14.05	2742.0	2650.6
14.06	2740.0	2651.9
14.07	2698.0	2653.3
14.08	2701.0	2654.7
14.09	2745.0	2656.0
14.1	2739.0	2657.4
14.11	2752.0	2658.8
14.12	2740.0	2660.2
14.13	2712.0	2661.5
14.14	2738.0	2662.9
14.15	2668.0	2664.3
14.16	2662.0	2665.7
14.17	2708.0	2667.0
14.18	2740.0	2668.4
14.19	2712.0	2669.8
14.2	2757.0	2671.2
14.21	2732.0	2672.6
14.22	2699.0	2674.0
14.23	2746.0	2675.3
14.24	2794.0	2676.7
14.25	2780.0	2678.1
14.26	2732.0	2679.5
14.27	2740.0	2680.9
14.28	2716.0	2682.3
14.29	2738.0	2683.7
14.3	2794.0	2685.1
14.31	2765.0	2686.5
14.32	2742.0	2687.9
14.33	2703.0	2689.3
14.34	2707.0	2690.7
14.35	2734.0	2692.1
14.36	2754.0	2693.5
14.37	2802.0	2694.9
14.38	2754.0	2696.3
14.39	2762.0	2697.7
14.4	2755.0	2699.1
14.41	2720.0	2700.5
14.42	2765.0	2701.9
14.43	2773.0	2703.3
14.44	2764.0	2704.7
14.45	2765.0	2706.1
14.46	2767.0	2707.5
14.47	2770.0	2708.9
14.48	2744.0	2710.3
14.49	2726.0	2711.7
14.5	2740.0	2713.1
14.51	2740.0	2714.5
14.52	2774.0	2715.9
14.53	2762.0	2717.4
14.54	2743.0	2718.8
14.55	2730.0	2720.2
14.56	2729.0	2721.6
14.57	2768.0	2723.0
14.58	2761.0	2724.4
14.59	2738.0	2725.8
14.6	2780.0	2727.2
14.61	2753.0	2728.6
14.62	2769.0	2730.1
14.63	2789.0	2731.5
14.64	2799.0	2732.9
14.65	2786.0	2734.3
14.66	2807.0	2735.7
14.67	2800.0	2737.1
14.68	2765.0	2738.5
14.69	2769.0	2739.9
14.7	2745.0	2741.4
14.71	2723.0	2742.8
14.72	2785.0	2744.2
14.73	2835.0	2745.6
14.74	2839.0	2747.0
14.75	2809.0	2748.4
14.76	2807.0	2749.8
14.77	2774.0	2751.2
14.78	2808.0	2752.6
14.79	2813.0	2754.0
14.8	2792.0	2755.5
14.81	2804.0	2756.9
14.82	2769.0	2758.3
14.83	2791.0	2759.7
14.84	2835.0	2761.1
14.85	2829.0	2762.5
14.86	2824.0	2763.9
14.87	2765.0	2765.3
14.88	2746.0	2766.7
14.89	2778.0	2768.1
14.9	2763.0	2769.5
14.91	2828.0	2770.9
14.92	2876.0	2772.3
14.93	2879.0	2773.7
14.94	2853.0	2775.1
14.95	2851.0	2776.5
14.96	2866.0	2777.9
14.97	2875.0	2779.3
14.98	2833.0	2780.7
14.99	2856.0	2782.1
15.0	2813.0	2783.5
15.01	2763.0	2784.9
15.02	2799.0	2786.3
15.03	2836.0	2787.7
15.04	2847.0	2789.1
15.05	2814.0	2790.5
15.06	2768.0	2791.9
15.07	2797.0	2793.3
15.08	2828.0	2794.6
15.09	2808.0	2796.0
15.1	2803.0	2797.4
15.11	2826.0	2798.8
15.12	2795.0	2800.2
15.13	2782.0	2801.6
15.14	2773.0	2802.9
15.15	2776.0	2804.3
15.16	2807.0	2805.7
15.17	2764.0	2807.1
15.18	2778.0	2808.4
15.19	2760.0	2809.8
15.2	2763.0	2811.2
15.21	2830.0	2812.6
15.22	2863.0	2813.9
15.23	2855.0	2815.3
15.24	2851.0	2816.7
15.25	2841.0	2818.0
15.26	2857.0	2819.4
15.27	2859.0	2820.7
15.28	2868.0	2822.1
15.29	2858.0	2823.5
15.3	2865.0	2824.8
15.31	2866.0	2826.2
15.32	2802.0	2827.5
15.33	2806.0	2828.9
15.34	2845.0	2830.2
15.35	2837.0	2831.6
15.36	2827.0	2832.9
15.37	2802.0	2834.2
15.38	2816.0	2835.6
15.39	2836.0	2836.9
15.4	2819.0	2838.3
15.41	2774.0	2839.6
15.42	2802.0	2840.9
15.43	2874.0	2842.2
15.44	2857.0	2843.6
15.45	2840.0	2844.9
15.46	2827.0	2846.2
15.47	2859.0	2847.5
15.48	2827.0	2848.9
15.49	2860.0	2850.2
15.5	2915.0	2851.5
15.51	2869.0	2852.8
15.52	2815.0	2854.1
15.53	2831.0	2855.4
15.54	2863.0	2856.7
15.55	2866.0	2858.0
15.56	2848.0	2859.3
15.57	2824.0	2860.6
15.58	2810.0	2861.9
15.59	2797.0	2863.2
15.6	2856.0	2864.5
15.61	2915.0	2865.8
15.62	2858.0	2867.1
15.63	2791.0	2868.3
15.64	2786.0	2869.6
15.65	2843.0	2870.9
15.66	2914.0	2872.2
15.67	2912.0	2873.4
15.68	2829.0	2874.7
15.69	2789.0	2876.0
15.7	2821.0	2877.2
15.71	2868.0	2878.5
15.72	2872.0	2879.8
15.73	2850.0	2881.0
15.74	2861.0	2882.3
15.75	2838.0	2883.5
15.76	2804.0	2884.7
15.77	2846.0	2886.0
15.78	2890.0	2887.2
15.79	2895.0	2888.5
15.8	2950.0	2889.7
15.81	2960.0	2890.9
15.82	2881.0	2892.1
15.83	2865.0	2893.4
15.84	2887.0	2894.6
15.85	2909.0	2895.8
15.86	2915.0	2897.0
15.87	2912.0	2898.2
15.88	2913.0	2899.4
15.89	2942.0	2900.6
15.9	2955.0	2901.8
15.91	2935.0	2903.0
15.92	2861.0	2904.2
15.93	2854.0	2905.4
15.94	2902.0	2906.6
15.95	2927.0	2907.8
15.96	2945.0	2908.9
15.97	2931.0	2910.1
15.98	2955.0	2911.3
15.99	2940.0	2912.5
16.0	2866.0	2913.6
16.01	2848.0	2914.8
16.02	2877.0	2915.9
16.03	2942.0	2917.1
16.04	2932.0	2918.2
16.05	2912.0	2919.4
16.06	2905.0	2920.5
16.07	2916.0	2921.7
16.08	2944.0	2922.8
16.09	2914.0	2923.9
16.1	2912.0	2925.0
16.11	2916.0	2926.2
16.12	2976.0	2927.3
16.13	3006.0	2928.4
16.14	3013.0	2929.5
16.15	2981.0	2930.6
16.16	2973.0	2931.7
16.17	3014.0	2932.8
16.18	2988.0	2933.9
16.19	2978.0	2935.0
16.2	2959.0	2936.1
16.21	2966.0	2937.1
16.22	2967.0	2938.2
16.23	2966.0	2939.3
16.24	2956.0	2940.4
16.25	2924.0	2941.4
16.26	2920.0	2942.5
16.27	2935.0	2943.5
16.28	2889.0	2944.6
16.29	2885.0	2945.6
16.3	2924.0	2946.7
16.31	2916.0	2947.7
16.32	2943.0	2948.7
16.33	2959.0	2949.7
16.34	2980.0	2950.8
16.35	2986.0	2951.8
16.36	2997.0	2952.8
16.37	3001.0	2953.8
16.38	3026.0	2954.8
16.39	3033.0	2955.8
16.4	2988.0	2956.8
16.41	2981.0	2957.8
16.42	3023.0	2958.8
16.43	3038.0	2959.8
16.44	2998.0	2960.7
16.45	2959.0	2961.7
16.46	2963.0	2962.7
16.47	2997.0	2963.6
16.48	3015.0	2964.6
16.49	2990.0	2965.5
16.5	2965.0	2966.5
16.51	2962.0	2967.4
16.52	2988.0	2968.4
16.53	3002.0	2969.3
16.54	3011.0	2970.2
16.55	3042.0	2971.1
16.56	3044.0	2972.1
16.57	3031.0	2973.0
16.58	3010.0	2973.9
16.59	3035.0	2974.8
16.6	3070.0	2975.7
16.61	3054.0	2976.6
16.62	3038.0	2977.5
16.63	3082.0	2978.4
16.64	3127.0	2979.3
16.65	3059.0	2980.1
16.66	2973.0	2981.0
16.67	3001.0	2981.9
16.68	3053.0	2982.7
16.69	3039.0	2983.6
16.7	2999.0	2984.5
16.71	3058.0	2985.3
16.72	3077.0	2986.2
16.73	3046.0	2987.0
16.74	3070.0	2987.8
16.75	3068.0	2988.7
16.76	3044.0	2989.5
16.77	3076.0	2990.3
16.78	3108.0	2991.1
16.79	3083.0	2992.0
16.8	3067.0	2992.8
16.81	3051.0	2993.6
16.82	2999.0	2994.4
16.83	3004.0	2995.2
16.84	3037.0	2996.0
16.85	3056.0	2996.8
16.86	3064.0	2997.5
16.87	3057.0	2998.3
16.88	3116.0	2999.1
16.89	3121.0	2999.9
16.9	3113.0	3000.6
16.91	3104.0	3001.4
16.92	3033.0	3002.1
16.93	3043.0	3002.9
16.94	3078.0	3003.6
16.95	3072.0	3004.4
16.96	3077.0	3005.1
16.97	3078.0	3005.8
16.98	3053.0	3006.6
16.99	3076.0	3007.3
17.0	3129.0	3008.0
17.01	3136.0	3008.7
17.02	3104.0	3009.4
17.03	3080.0	3010.2
17.04	3086.0	3010.9
17.05	3085.0	3011.6
17.06	3104.0	3012.2
17.07	3122.0	3012.9
17.08	3101.0	3013.6
17.09	3102.0	3014.3
17.1	3110.0	3015.0
17.11	3086.0	3015.6
17.12	3072.0	3016.3
17.13	3077.0	3017.0
17.14	3052.0	3017.6
17.15	3039.0	3018.3
17.16	3114.0	3018.9
17.17	3170.0	3019.6
17.18	3096.0	3020.2
17.19	3042.0	3020.8
17.2	3092.0	3021.5
17.21	3125.0	3022.1
17.22	3110.0	3022.7
17.23	3138.0	3023.3
17.24	3179.0	3024.0
17.25	3168.0	3024.6
17.26	3154.0	3025.2
17.27	3176.0	3025.8
17.28	3170.0	3026.4
17.29	3148.0	3027.0
17.3	3120.0	3027.5
17.31	3116.0	3028.1
17.32	3147.0	3028.7
17.33	3163.0	3029.3
17.34	3170.0	3029.8
17.35	3179.0	3030.4
17.36	3201.0	3031.0
17.37	3168.0	3031.5
17.38	3120.0	3032.1
17.39	3147.0	3032.6
17.4	3201.0	3033.1
17.41	3218.0	3033.7
17.42	3195.0	3034.2
17.43	3183.0	3034.7
17.44	3185.0	3035.3
17.45	3196.0	3035.8
17.46	3188.0	3036.3
17.47	3167.0	3036.8
17.48	3167.0	3037.3
17.49	3208.0	3037.8
17.5	3215.0	3038.3
17.51	3189.0	3038.8
17.52	3174.0	3039.3
17.53	3194.0	3039.8
17.54	3230.0	3040.3
17.55	3217.0	3040.7
17.56	3200.0	3041.2
17.57	3203.0	3041.7
17.58	3215.0	3042.1
17.59	3219.0	3042.6
17.6	3226.0	3043.1
17.61	3242.0	3043.5
17.62	3243.0	3043.9
17.63	3251.0	3044.4
17.64	3258.0	3044.8
17.65	3229.0	3045.3
17.66	3231.0	3045.7
17.67	3266.0	3046.1
17.68	3276.0	3046.5
17.69	3235.0	3046.9
17.7	3207.0	3047.3
17.71	3227.0	3047.8
17.72	3231.0	3048.2
17.73	3209.0	3048.6
17.74	3184.0	3048.9
17.75	3184.0	3049.3
17.76	3209.0	3049.7
17.77	3231.0	3050.1
17.78	3264.0	3050.5
17.79	3289.0	3050.8
17.8	3250.0	3051.2
17.81	3217.0	3051.6
17.82	3257.0	3051.9
17.83	3284.0	3052.3
17.84	3278.0	3052.6
17.85	3285.0	3053.0
17.86	3261.0	3053.3
17.87	3240.0	3053.6
17.88	3272.0	3054.0
17.89	3319.0	3054.3
17.9	3297.0	3054.6
17.91	3264.0	3054.9
17.92	3265.0	3055.3
17.93	3272.0	3055.6
17.94	3316.0	3055.9
17.95	3311.0	3056.2
17.96	3221.0	3056.5
17.97	3201.0	3056.8
17.98	3242.0	3057.1
17.99	3249.0	3057.3
18.0	3284.0	3057.6
18.01	3323.0	3057.9
18.02	3340.0	3058.2
18.03	3313.0	3058.4
18.04	3286.0	3058.7
18.05	3273.0	3059.0
18.06	3295.0	3059.2
18.07	3356.0	3059.5
18.08	3340.0	3059.7
18.09	3323.0	3059.9
18.1	3333.0	3060.2
18.11	3351.0	3060.4
18.12	3362.0	3060.6
18.13	3330.0	3060.9
18.14	3400.0	3061.1
18.15	3382.0	3061.3
18.16	3277.0	3061.5
18.17	3310.0	3061.7
18.18	3325.0	3061.9
18.19	3341.0	3062.1
18.2	3365.0	3062.3
18.21	3366.0	3062.5
18.22	3361.0	3062.7
18.23	3348.0	3062.9
18.24	3348.0	3063.0
18.25	3362.0	3063.2
18.26	3402.0	3063.4
18.27	3388.0	3063.6
18.28	3341.0	3063.7
18.29	3337.0	3063.9
18.3	3367.0	3064.0
18.31	3416.0	3064.2
18.32	3437.0	3064.3
18.33	3382.0	3064.5
18.34	3385.0	3064.6
18.35	3426.0	3064.7
18.36	3381.0	3064.8
18.37	3328.0	3065.0
18.38	3348.0	3065.1
18.39	3345.0	3065.2
18.4	3369.0	3065.3
18.41	3395.0	3065.4
18.42	3421.0	3065.5
18.43	3464.0	3065.6
18.44	3440.0	3065.7
18.45	3439.0	3065.8
18.46	3408.0	3065.9
18.47	3396.0	3065.9
18.48	3420.0	3066.0
18.49	3430.0	3066.1
18.5	3434.0	3066.2
18.51	3429.0	3066.2
18.52	3375.0	3066.3
18.53	3399.0	3066.3
18.54	3431.0	3066.4
18.55	3431.0	3066.4
18.56	3459.0	3066.5
18.57	3473.0	3066.5
18.58	3458.0	3066.5
18.59	3500.0	3066.6
18.6	3516.0	3066.6
18.61	3474.0	3066.6
18.62	3495.0	3066.6
18.63	3455.0	3066.7
18.64	3416.0	3066.7
18.65	3418.0	3066.7
18.66	3434.0	3066.7
18.67	3407.0	3066.7
18.68	3456.0	3066.7
18.69	3514.0	3066.6
18.7	3485.0	3066.6
18.71	3485.0	3066.6
18.72	3548.0	3066.6
18.73	3539.0	3066.5
18.74	3434.0	3066.5
18.75	3440.0	3066.5
18.76	3521.0	3066.4
18.77	3556.0	3066.4
18.78	3598.0	3066.3
18.79	3567.0	3066.3
18.8	3528.0	3066.2
18.81	3522.0	3066.2
18.82	3521.0	3066.1
18.83	3541.0	3066.0
18.84	3498.0	3066.0
18.85	3492.0	3065.9
18.86	3504.0	3065.8
18.87	3537.0	3065.7
18.88	3540.0	3065.6
18.89	3560.0	3065.5
18.9	3527.0	3065.4
18.91	3509.0	3065.3
18.92	3534.0	3065.2
18.93	3520.0	3065.1
18.94	3499.0	3065.0
18.95	3509.0	3064.9
18.96	3515.0	3064.7
18.97	3512.0	3064.6
18.98	3526.0	3064.5
18.99	3528.0	3064.3
19.0	3547.0	3064.2
19.01	3561.0	3064.1
19.02	3528.0	3063.9
19.03	3508.0	3063.7
19.04	3514.0	3063.6
19.05	3511.0	3063.4
19.06	3502.0	3063.3
19.07	3516.0	3063.1
19.08	3495.0	3062.9
19.09	3550.0	3062.7
19.1	3670.0	3062.6
19.11	3623.0	3062.4
19.12	3540.0	3062.2
19.13	3525.0	3062.0
19.14	3543.0	3061.8
19.15	3577.0	3061.6
19.16	3534.0	3061.4
19.17	3503.0	3061.2
19.18	3538.0	3061.0
19.19	3581.0	3060.7
19.2	3593.0	3060.5
19.21	3585.0	3060.3
19.22	3620.0	3060.1
19.23	3695.0	3059.8
19.24	3698.0	3059.6
19.25	3647.0	3059.3
19.26	3620.0	3059.1
19.27	3615.0	3058.8
19.28	3588.0	3058.6
19.29	3618.0	3058.3
19.3	3636.0	3058.1
19.31	3642.0	3057.8
19.32	3635.0	3057.5
19.33	3632.0	3057.3
19.34	3627.0	3057.0
19.35	3643.0	3056.7
19.36	3603.0	3056.4
19.37	3557.0	3056.1
19.38	3588.0	3055.8
19.39	3643.0	3055.5
19.4	3673.0	3055.2
19.41	3672.0	3054.9
19.42	3594.0	3054.6
19.43	3600.0	3054.3
19.44	3602.0	3054.0
19.45	3639.0	3053.6
19.46	3624.0	3053.3
19.47	3664.0	3053.0
19.48	3676.0	3052.6
19.49	3672.0	3052.3
19.5	3692.0	3052.0
19.51	3660.0	3051.6
19.52	3693.0	3051.3
19.53	3685.0	3050.9
19.54	3683.0	3050.5
19.55	3695.0	3050.2
19.56	3681.0	3049.8
19.57	3719.0	3049.4
19.58	3680.0	3049.1
19.59	3684.0	3048.7
19.6	3696.0	3048.3
19.61	3622.0	3047.9
19.62	3588.0	3047.5
19.63	3664.0	3047.1
19.64	3714.0	3046.7
19.65	3683.0	3046.3
19.66	3642.0	3045.9
19.67	3642.0	3045.5
19.68	3718.0	3045.1
19.69	3708.0	3044.7
19.7	3688.0	3044.2
19.71	3611.0	3043.8
19.72	3573.0	3043.4
19.73	3615.0	3043.0
19.74	3651.0	3042.5
19.75	3662.0	3042.1
19.76	3657.0	3041.6
19.77	3666.0	3041.2
19.78	3668.0	3040.7
19.79	3697.0	3040.3
19.8	3731.0	3039.8
19.81	3707.0	3039.3
19.82	3690.0	3038.9
19.83	3733.0	3038.4
19.84	3725.0	3037.9
19.85	3661.0	3037.4
19.86	3680.0	3036.9
19.87	3683.0	3036.4
19.88	3675.0	3035.9
19.89	3651.0	3035.4
19.9	3638.0	3034.9
19.91	3673.0	3034.4
19.92	3724.0	3033.9
19.93	3714.0	3033.4
19.94	3687.0	3032.9
19.95	3704.0	3032.4
19.96	3657.0	3031.8
19.97	3670.0	3031.3
19.98	3702.0	3030.8
19.99	3682.0	3030.2
20.0	3661.0	3029.7
