BroadPeak_MnF2_SPEX3
Wavelength = 1.54059 Ã… (Cu)
Angle	I(o)	I(b)
10.0	1781.0	1794.2
10.01	1779.0	1794.6
10.02	1825.0	1795.0
10.03	1795.0	1795.4
10.04	1828.0	1795.8
10.05	1856.0	1796.2
10.06	1806.0	1796.6
10.07	1834.0	1797.0
10.08	1798.0	1797.4
10.09	1777.0	1797.8
10.1	1748.0	1798.2
10.11	1725.0	1798.6
10.12	1802.0	1799.0
10.13	1851.0	1799.4
10.14	1807.0	1799.8
10.15	1812.0	1800.2
10.16	1741.0	1800.6
10.17	1788.0	1801.0
10.18	1818.0	1801.4
10.19	1829.0	1801.8
10.2	1839.0	1802.2
10.21	1808.0	1802.6
10.22	1795.0	1803.0
10.23	1814.0	1803.4
10.24	1837.0	1803.9
10.25	1840.0	1804.3
10.26	1853.0	1804.7
10.27	1863.0	1805.1
10.28	1816.0	1805.5
10.29	1847.0	1805.9
10.3	1847.0	1806.3
10.31	1799.0	1806.8
10.32	1796.0	1807.2
10.33	1838.0	1807.6
10.34	1912.0	1808.0
10.35	1799.0	1808.5
10.36	1776.0	1808.9
10.37	1816.0	1809.3
10.38	1770.0	1809.8
10.39	1823.0	1810.2
10.4	1882.0	1810.6
10.41	1858.0	1811.1
10.42	1819.0	1811.5
10.43	1842.0	1811.9
10.44	1838.0	1812.4
10.45	1835.0	1812.8
10.46	1837.0	1813.3
10.47	1846.0	1813.7
10.48	1832.0	1814.2
10.49	1821.0	1814.6
10.5	1814.0	1815.1
10.51	1849.0	1815.6
10.52	1825.0	1816.0
10.53	1846.0	1816.5
10.54	1854.0	1817.0
10.55	1815.0	1817.4
10.56	1829.0	1817.9
10.57	1897.0	1818.4
10.58	1867.0	1818.9
10.59	1834.0	1819.4
10.6	1854.0	1819.8
10.61	1856.0	1820.3
10.62	1900.0	1820.8
10.63	1926.0	1821.3
10.64	1912.0	1821.8
10.65	1898.0	1822.3
10.66	1880.0	1822.8
10.67	1890.0	1823.3
10.68	1847.0	1823.9
10.69	1878.0	1824.4
10.7	1868.0	1824.9
10.71	1872.0	1825.4
10.72	1882.0	1825.9
10.73	1922.0	1826.5
10.74	1896.0	1827.0
10.75	1803.0	1827.6
10.76	1792.0	1828.1
10.77	1907.0	1828.6
10.78	1861.0	1829.2
10.79	1900.0	1829.7
10.8	1900.0	1830.3
10.81	1913.0	1830.9
10.82	1882.0	1831.4
10.83	1889.0	1832.0
10.84	1892.0	1832.6
10.85	1864.0	1833.2
10.86	1868.0	1833.7
10.87	1854.0	1834.3
10.88	1877.0	1834.9
10.89	1878.0	1835.5
10.9	1900.0	1836.1
10.91	1880.0	1836.7
10.92	1906.0	1837.3
10.93	1885.0	1838.0
10.94	1892.0	1838.6
10.95	1833.0	1839.2
10.96	1879.0	1839.8
10.97	1925.0	1840.5
10.98	1936.0	1841.1
10.99	1839.0	1841.8
11.0	1895.0	1842.4
11.01	1878.0	1843.1
11.02	1908.0	1843.7
11.03	1932.0	1844.4
11.04	1989.0	1845.1
11.05	1955.0	1845.7
11.06	1877.0	1846.4
11.07	1878.0	1847.1
11.08	1880.0	1847.8
11.09	1866.0	1848.5
11.1	1870.0	1849.2
11.11	1847.0	1849.9
11.12	1835.0	1850.6
11.13	1837.0	1851.4
11.14	1901.0	1852.1
11.15	1860.0	1852.8
11.16	1886.0	1853.6
11.17	1930.0	1854.3
11.18	1933.0	1855.1
11.19	1919.0	1855.8
11.2	1954.0	1856.6
11.21	1911.0	1857.3
11.22	1943.0	1858.1
11.23	1925.0	1858.9
11.24	1916.0	1859.7
11.25	1875.0	1860.5
11.26	1903.0	1861.2
11.27	1908.0	1862.0
11.28	1938.0	1862.8
11.29	1968.0	1863.7
11.3	1933.0	1864.5
11.31	1860.0	1865.3
11.32	1937.0	1866.1
11.33	1916.0	1866.9
11.34	1967.0	1867.8
11.35	1967.0	1868.6
11.36	1964.0	1869.4
11.37	1940.0	1870.3
11.38	1960.0	1871.1
11.39	1951.0	1872.0
11.4	1933.0	1872.8
11.41	1935.0	1873.7
11.42	1911.0	1874.6
11.43	1917.0	1875.4
11.44	1895.0	1876.3
11.45	1903.0	1877.2
11.46	1884.0	1878.1
11.47	1900.0	1879.0
11.48	1962.0	1879.9
11.49	1946.0	1880.8
11.5	1908.0	1881.7
11.51	1939.0	1882.6
11.52	1925.0	1883.5
11.53	1927.0	1884.4
11.54	1947.0	1885.3
11.55	1961.0	1886.2
11.56	1927.0	1887.1
11.57	1914.0	1888.1
11.58	2019.0	1889.0
11.59	1990.0	1889.9
11.6	1948.0	1890.9
11.61	1931.0	1891.8
11.62	1937.0	1892.7
11.63	1954.0	1893.7
11.64	1949.0	1894.6
11.65	1928.0	1895.6
11.66	1921.0	1896.5
11.67	1961.0	1897.5
11.68	1941.0	1898.5
11.69	1902.0	1899.4
11.7	1932.0	1900.4
11.71	1957.0	1901.4
11.72	1933.0	1902.3
11.73	1941.0	1903.3
11.74	2046.0	1904.3
11.75	2006.0	1905.3
11.76	1993.0	1906.2
11.77	2036.0	1907.2
11.78	1994.0	1908.2
11.79	2000.0	1909.2
11.8	1954.0	1910.2
11.81	1988.0	1911.2
11.82	2031.0	1912.2
11.83	1999.0	1913.2
11.84	2012.0	1914.2
11.85	1989.0	1915.2
11.86	1944.0	1916.2
11.87	1954.0	1917.2
11.88	2012.0	1918.2
11.89	1960.0	1919.2
11.9	1960.0	1920.2
11.91	1997.0	1921.3
11.92	1942.0	1922.3
11.93	1890.0	1923.3
11.94	1992.0	1924.3
11.95	2026.0	1925.3
11.96	1988.0	1926.4
11.97	1936.0	1927.4
11.98	2000.0	1928.4
11.99	1998.0	1929.4
12.0	1994.0	1930.5
12.01	1990.0	1931.5
12.02	2007.0	1932.5
12.03	2035.0	1933.6
12.04	2022.0	1934.6
12.05	1962.0	1935.6
12.06	1956.0	1936.7
12.07	1973.0	1937.7
12.08	1973.0	1938.7
12.09	1996.0	1939.8
12.1	2028.0	1940.8
12.11	1980.0	1941.8
12.12	1967.0	1942.9
12.13	1986.0	1943.9
12.14	1990.0	1945.0
12.15	1996.0	1946.0
12.16	2004.0	1947.1
12.17	2012.0	1948.1
12.18	2056.0	1949.1
12.19	2055.0	1950.2
12.2	2000.0	1951.2
12.21	2002.0	1952.3
12.22	1975.0	1953.3
12.23	1980.0	1954.4
12.24	2041.0	1955.4
12.25	2026.0	1956.5
12.26	1973.0	1957.5
12.27	2000.0	1958.6
12.28	2012.0	1959.6
12.29	2008.0	1960.6
12.3	2003.0	1961.7
12.31	1999.0	1962.7
12.32	1993.0	1963.8
12.33	2009.0	1964.8
12.34	1991.0	1965.9
12.35	1987.0	1966.9
12.36	2009.0	1968.0
12.37	1994.0	1969.0
12.38	2004.0	1970.0
12.39	2016.0	1971.1
12.4	2017.0	1972.1
12.41	1995.0	1973.2
12.42	2043.0	1974.2
12.43	2036.0	1975.2
12.44	2058.0	1976.3
12.45	2058.0	1977.3
12.46	2013.0	1978.3
12.47	2056.0	1979.4
12.48	2036.0	1980.4
12.49	1995.0	1981.4
12.5	2007.0	1982.5
12.51	1971.0	1983.5
12.52	1982.0	1984.5
12.53	2006.0	1985.6
12.54	2013.0	1986.6
12.55	2028.0	1987.6
12.56	2035.0	1988.6
12.57	2045.0	1989.7
12.58	2069.0	1990.7
12.59	2066.0	1991.7
12.6	2010.0	1992.7
12.61	1995.0	1993.7
12.62	2045.0	1994.7
12.63	2063.0	1995.7
12.64	2024.0	1996.8
12.65	1977.0	1997.8
12.66	2047.0	1998.8
12.67	2059.0	1999.8
12.68	2083.0	2000.8
12.69	2057.0	2001.8
12.7	2034.0	2002.8
12.71	2080.0	2003.8
12.72	2060.0	2004.7
12.73	2074.0	2005.7
12.74	2005.0	2006.7
12.75	1956.0	2007.7
12.76	1978.0	2008.7
12.77	2064.0	2009.7
12.78	2033.0	2010.6
12.79	2029.0	2011.6
12.8	2054.0	2012.6
12.81	2037.0	2013.6
12.82	2036.0	2014.5
12.83	2016.0	2015.5
12.84	2063.0	2016.4
12.85	2008.0	2017.4
12.86	1976.0	2018.3
12.87	2021.0	2019.3
12.88	2008.0	2020.2
12.89	2011.0	2021.2
12.9	2064.0	2022.1
12.91	2060.0	2023.1
12.92	2072.0	2024.0
12.93	2074.0	2024.9
12.94	2057.0	2025.9
12.95	2050.0	2026.8
12.96	2067.0	2027.7
12.97	2056.0	2028.6
12.98	2056.0	2029.5
12.99	2096.0	2030.4
13.0	2073.0	2031.3
13.01	2087.0	2032.2
13.02	2122.0	2033.1
13.03	2108.0	2034.0
13.04	2159.0	2034.9
13.05	2104.0	2035.8
13.06	2095.0	2036.7
13.07	2041.0	2037.6
13.08	2056.0	2038.4
13.09	2030.0	2039.3
13.1	2041.0	2040.2
13.11	2066.0	2041.0
13.12	2047.0	2041.9
13.13	2056.0	2042.7
13.14	2054.0	2043.6
13.15	2028.0	2044.4
13.16	2038.0	2045.3
13.17	2083.0	2046.1
13.18	2083.0	2046.9
13.19	2058.0	2047.8
13.2	2075.0	2048.6
13.21	2073.0	2049.4
13.22	2113.0	2050.2
13.23	2111.0	2051.0
13.24	2105.0	2051.8
13.25	2113.0	2052.6
13.26	2099.0	2053.4
13.27	2082.0	2054.2
13.28	2100.0	2055.0
13.29	2088.0	2055.8
13.3	2112.0	2056.5
13.31	2069.0	2057.3
13.32	2117.0	2058.1
13.33	2102.0	2058.8
13.34	2061.0	2059.6
13.35	2082.0	2060.3
13.36	2066.0	2061.1
13.37	2098.0	2061.8
13.38	2112.0	2062.6
13.39	2087.0	2063.3
13.4	2109.0	2064.0
13.41	2068.0	2064.8
13.42	2075.0	2065.5
13.43	2118.0	2066.2
13.44	2109.0	2066.9
13.45	2105.0	2067.6
13.46	2071.0	2068.3
13.47	2090.0	2069.0
13.48	2134.0	2069.7
13.49	2156.0	2070.4
13.5	2118.0	2071.1
13.51	2089.0	2071.8
13.52	2111.0	2072.5
13.53	2072.0	2073.1
13.54	2115.0	2073.8
13.55	2105.0	2074.5
13.56	2115.0	2075.1
13.57	2088.0	2075.8
13.58	2144.0	2076.4
13.59	2159.0	2077.1
13.6	2110.0	2077.7
13.61	2110.0	2078.4
13.62	2113.0	2079.0
13.63	2124.0	2079.6
13.64	2126.0	2080.3
13.65	2134.0	2080.9
13.66	2081.0	2081.5
13.67	2085.0	2082.1
13.68	2091.0	2082.7
13.69	2103.0	2083.3
13.7	2121.0	2083.9
13.71	2154.0	2084.5
13.72	2159.0	2085.1
13.73	2084.0	2085.7
13.74	2119.0	2086.3
13.75	2136.0	2086.9
13.76	2114.0	2087.5
13.77	2107.0	2088.0
13.78	2108.0	2088.6
13.79	2074.0	2089.2
13.8	2101.0	2089.7
13.81	2139.0	2090.3
13.82	2134.0	2090.8
13.83	2127.0	2091.4
13.84	2164.0	2091.9
13.85	2144.0	2092.5
13.86	2085.0	2093.0
13.87	2123.0	2093.5
13.88	2170.0	2094.1
13.89	2145.0	2094.6
13.9	2084.0	2095.1
13.91	2106.0	2095.6
13.92	2123.0	2096.1
13.93	2053.0	2096.6
13.94	2124.0	2097.1
13.95	2165.0	2097.6
13.96	2143.0	2098.1
13.97	2150.0	2098.6
13.98	2153.0	2099.1
13.99	2155.0	2099.6
14.0	2126.0	2100.1
14.01	2112.0	2100.5
14.02	2104.0	2101.0
14.03	2146.0	2101.5
14.04	2139.0	2101.9
14.05	2095.0	2102.4
14.06	2112.0	2102.9
14.07	2140.0	2103.3
14.08	2186.0	2103.8
14.09	2205.0	2104.2
14.1	2155.0	2104.6
14.11	2154.0	2105.1
14.12	2206.0	2105.5
14.13	2238.0	2105.9
14.14	2198.0	2106.3
14.15	2184.0	2106.8
14.16	2177.0	2107.2
14.17	2189.0	2107.6
14.18	2222.0	2108.0
14.19	2206.0	2108.4
14.2	2174.0	2108.8
14.21	2153.0	2109.2
14.22	2132.0	2109.6
14.23	2153.0	2110.0
14.24	2165.0	2110.4
14.25	2154.0	2110.7
14.26	2145.0	2111.1
14.27	2162.0	2111.5
14.28	2201.0	2111.9
14.29	2173.0	2112.2
14.3	2162.0	2112.6
14.31	2136.0	2112.9
14.32	2105.0	2113.3
14.33	2119.0	2113.7
14.34	2151.0	2114.0
14.35	2207.0	2114.3
14.36	2203.0	2114.7
14.37	2161.0	2115.0
14.38	2181.0	2115.3
14.39	2182.0	2115.7
14.4	2192.0	2116.0
14.41	2220.0	2116.3
14.42	2208.0	2116.6
14.43	2181.0	2116.9
14.44	2173.0	2117.3
14.45	2189.0	2117.6
14.46	2192.0	2117.9
14.47	2165.0	2118.2
14.48	2138.0	2118.5
14.49	2161.0	2118.7
14.5	2155.0	2119.0
14.51	2149.0	2119.3
14.52	2161.0	2119.6
14.53	2154.0	2119.9
14.54	2243.0	2120.1
14.55	2215.0	2120.4
14.56	2179.0	2120.7
14.57	2148.0	2120.9
14.58	2128.0	2121.2
14.59	2129.0	2121.4
14.6	2062.0	2121.7
14.61	2040.0	2121.9
14.62	2127.0	2122.2
14.63	2184.0	2122.4
14.64	2127.0	2122.7
14.65	2147.0	2122.9
14.66	2177.0	2123.1
14.67	2162.0	2123.3
14.68	2154.0	2123.6
14.69	2157.0	2123.8
14.7	2168.0	2124.0
14.71	2145.0	2124.2
14.72	2168.0	2124.4
14.73	2175.0	2124.6
14.74	2154.0	2124.8
14.75	2147.0	2125.0
14.76	2146.0	2125.2
14.77	2161.0	2125.4
14.78	2128.0	2125.6
14.79	2134.0	2125.8
14.8	2099.0	2126.0
14.81	2147.0	2126.1
14.82	2160.0	2126.3
14.83	2162.0	2126.5
14.84	2162.0	2126.6
14.85	2125.0	2126.8
14.86	2126.0	2127.0
14.87	2136.0	2127.1
14.88	2136.0	2127.3
14.89	2152.0	2127.4
14.9	2125.0	2127.6
14.91	2098.0	2127.7
14.92	2076.0	2127.8
14.93	2120.0	2128.0
14.94	2132.0	2128.1
14.95	2138.0	2128.2
14.96	2142.0	2128.4
14.97	2136.0	2128.5
14.98	2158.0	2128.6
14.99	2164.0	2128.7
15.0	2142.0	2128.8
15.01	2165.0	2128.9
15.02	2137.0	2129.0
15.03	2105.0	2129.1
15.04	2105.0	2129.2
15.05	2139.0	2129.3
15.06	2145.0	2129.4
15.07	2142.0	2129.5
15.08	2121.0	2129.6
15.09	2126.0	2129.7
15.1	2134.0	2129.8
15.11	2155.0	2129.8
15.12	2158.0	2129.9
15.13	2152.0	2130.0
15.14	2191.0	2130.1
15.15	2155.0	2130.1
15.16	2091.0	2130.2
15.17	2130.0	2130.2
15.18	2147.0	2130.3
15.19	2165.0	2130.3
15.2	2137.0	2130.4
15.21	2109.0	2130.4
15.22	2133.0	2130.5
15.23	2147.0	2130.5
15.24	2130.0	2130.5
15.25	2149.0	2130.6
15.26	2191.0	2130.6
15.27	2166.0	2130.6
15.28	2074.0	2130.6
15.29	2082.0	2130.7
15.3	2113.0	2130.7
15.31	2092.0	2130.7
15.32	2097.0	2130.7
15.33	2188.0	2130.7
15.34	2209.0	2130.7
15.35	2145.0	2130.7
15.36	2154.0	2130.7
15.37	2112.0	2130.7
15.38	2089.0	2130.7
15.39	2109.0	2130.7
15.4	2093.0	2130.6
15.41	2088.0	2130.6
15.42	2097.0	2130.6
15.43	2077.0	2130.6
15.44	2082.0	2130.5
15.45	2157.0	2130.5
15.46	2176.0	2130.5
15.47	2146.0	2130.4
15.48	2131.0	2130.4
15.49	2130.0	2130.4
15.5	2121.0	2130.3
15.51	2100.0	2130.3
15.52	2110.0	2130.2
15.53	2144.0	2130.2
15.54	2132.0	2130.1
15.55	2118.0	2130.0
15.56	2100.0	2130.0
15.57	2101.0	2129.9
15.58	2091.0	2129.8
15.59	2078.0	2129.8
15.6	2118.0	2129.7
15.61	2113.0	2129.6
15.62	2097.0	2129.5
15.63	2163.0	2129.4
15.64	2164.0	2129.4
15.65	2141.0	2129.3
15.66	2139.0	2129.2
15.67	2119.0	2129.1
15.68	2122.0	2129.0
15.69	2101.0	2128.9
15.7	2069.0	2128.8
15.71	2055.0	2128.7
15.72	2062.0	2128.5
15.73	2086.0	2128.4
15.74	2091.0	2128.3
15.75	2086.0	2128.2
15.76	2126.0	2128.1
15.77	2146.0	2128.0
15.78	2142.0	2127.8
15.79	2138.0	2127.7
15.8	2132.0	2127.6
15.81	2107.0	2127.4
15.82	2141.0	2127.3
15.83	2171.0	2127.1
15.84	2158.0	2127.0
15.85	2130.0	2126.9
15.86	2094.0	2126.7
15.87	2088.0	2126.6
15.88	2065.0	2126.4
15.89	2081.0	2126.2
15.9	2114.0	2126.1
15.91	2096.0	2125.9
15.92	2108.0	2125.7
15.93	2116.0	2125.6
15.94	2081.0	2125.4
15.95	2095.0	2125.2
15.96	2141.0	2125.1
15.97	2133.0	2124.9
15.98	2123.0	2124.7
15.99	2086.0	2124.5
16.0	2066.0	2124.3
16.01	2111.0	2124.1
16.02	2115.0	2123.9
16.03	2136.0	2123.7
16.04	2104.0	2123.5
16.05	2107.0	2123.3
16.06	2109.0	2123.1
16.07	2127.0	2122.9
16.08	2112.0	2122.7
16.09	2102.0	2122.5
16.1	2101.0	2122.3
16.11	2088.0	2122.1
16.12	2065.0	2121.9
16.13	2072.0	2121.6
16.14	2082.0	2121.4
16.15	2078.0	2121.2
16.16	2084.0	2121.0
16.17	2105.0	2120.7
16.18	2121.0	2120.5
16.19	2127.0	2120.3
16.2	2082.0	2120.0
16.21	2073.0	2119.8
16.22	2079.0	2119.5
16.23	2125.0	2119.3
16.24	2135.0	2119.0
16.25	2109.0	2118.8
16.26	2067.0	2118.5
16.27	2085.0	2118.3
16.28	2108.0	2118.0
16.29	2102.0	2117.7
16.3	2094.0	2117.5
16.31	2066.0	2117.2
16.32	2087.0	2116.9
16.33	2103.0	2116.7
16.34	2108.0	2116.4
16.35	2113.0	2116.1
16.36	2119.0	2115.8
16.37	2112.0	2115.6
16.38	2086.0	2115.3
16.39	2051.0	2115.0
16.4	2073.0	2114.7
16.41	2141.0	2114.4
16.42	2122.0	2114.1
16.43	2091.0	2113.8
16.44	2084.0	2113.5
16.45	2049.0	2113.2
16.46	2043.0	2112.9
16.47	2074.0	2112.6
16.48	2071.0	2112.3
16.49	2074.0	2112.0
16.5	2074.0	2111.7
16.51	2094.0	2111.4
16.52	2105.0	2111.1
16.53	2089.0	2110.7
16.54	2074.0	2110.4
16.55	2075.0	2110.1
16.56	2090.0	2109.8
16.57	2124.0	2109.4
16.58	2140.0	2109.1
16.59	2085.0	2108.8
16.6	2052.0	2108.4
16.61	2100.0	2108.1
16.62	2126.0	2107.8
16.63	2123.0	2107.4
16.64	2122.0	2107.1
16.65	2119.0	2106.7
16.66	2107.0	2106.4
16.67	2132.0	2106.0
16.68	2156.0	2105.7
16.69	2170.0	2105.3
16.7	2163.0	2105.0
16.71	2143.0	2104.6
16.72	2118.0	2104.2
16.73	2078.0	2103.9
16.74	2078.0	2103.5
16.75	2068.0	2103.1
16.76	2069.0	2102.8
16.77	2092.0	2102.4
16.78	2079.0	2102.0
16.79	2080.0	2101.6
16.8	2093.0	2101.3
16.81	2085.0	2100.9
16.82	2045.0	2100.5
16.83	2057.0	2100.1
16.84	2093.0	2099.7
16.85	2101.0	2099.3
16.86	2094.0	2098.9
16.87	2115.0	2098.6
16.88	2140.0	2098.2
16.89	2132.0	2097.8
16.9	2116.0	2097.4
16.91	2095.0	2097.0
16.92	2110.0	2096.6
16.93	2145.0	2096.1
16.94	2154.0	2095.7
16.95	2146.0	2095.3
16.96	2122.0	2094.9
16.97	2095.0	2094.5
16.98	2082.0	2094.1
16.99	2084.0	2093.7
17.0	2093.0	2093.2
17.01	2108.0	2092.8
17.02	2128.0	2092.4
17.03	2094.0	2092.0
17.04	2102.0	2091.5
17.05	2112.0	2091.1
17.06	2079.0	2090.7
17.07	2099.0	2090.3
17.08	2134.0	2089.8
17.09	2115.0	2089.4
17.1	2116.0	2088.9
17.11	2120.0	2088.5
17.12	2084.0	2088.1
17.13	2085.0	2087.6
17.14	2091.0	2087.2
17.15	2093.0	2086.7
17.16	2112.0	2086.3
17.17	2119.0	2085.8
17.18	2133.0	2085.4
17.19	2130.0	2084.9
17.2	2113.0	2084.4
17.21	2098.0	2084.0
17.22	2088.0	2083.5
17.23	2069.0	2083.0
17.24	2066.0	2082.6
17.25	2091.0	2082.1
17.26	2096.0	2081.6
17.27	2098.0	2081.2
17.28	2097.0	2080.7
17.29	2085.0	2080.2
17.3	2116.0	2079.8
17.31	2169.0	2079.3
17.32	2177.0	2078.8
17.33	2166.0	2078.3
17.34	2101.0	2077.8
17.35	2055.0	2077.3
17.36	2062.0	2076.9
17.37	2060.0	2076.4
17.38	2076.0	2075.9
17.39	2119.0	2075.4
17.4	2123.0	2074.9
17.41	2065.0	2074.4
17.42	2059.0	2073.9
17.43	2094.0	2073.4
17.44	2111.0	2072.9
17.45	2124.0	2072.4
17.46	2107.0	2071.9
17.47	2070.0	2071.4
17.48	2078.0	2070.9
17.49	2101.0	2070.4
17.5	2129.0	2069.8
17.51	2148.0	2069.3
17.52	2105.0	2068.8
17.53	2098.0	2068.3
17.54	2120.0	2067.8
17.55	2101.0	2067.3
17.56	2078.0	2066.7
17.57	2076.0	2066.2
17.58	2091.0	2065.7
17.59	2103.0	2065.2
17.6	2129.0	2064.6
17.61	2128.0	2064.1
17.62	2119.0	2063.6
17.63	2130.0	2063.1
17.64	2100.0	2062.5
17.65	2065.0	2062.0
17.66	2064.0	2061.5
17.67	2096.0	2060.9
17.68	2093.0	2060.4
17.69	2061.0	2059.8
17.7	2056.0	2059.3
17.71	2051.0	2058.7
17.72	2057.0	2058.2
17.73	2068.0	2057.7
17.74	2061.0	2057.1
17.75	2040.0	2056.6
17.76	2044.0	2056.0
17.77	2076.0	2055.4
17.78	2075.0	2054.9
17.79	2096.0	2054.3
17.8	2119.0	2053.8
17.81	2131.0	2053.2
17.82	2117.0	2052.7
17.83	2056.0	2052.1
17.84	2044.0	2051.5
17.85	2056.0	2051.0
17.86	2076.0	2050.4
17.87	2063.0	2049.8
17.88	2024.0	2049.3
17.89	2081.0	2048.7
17.9	2133.0	2048.1
17.91	2098.0	2047.6
17.92	2062.0	2047.0
17.93	2087.0	2046.4
17.94	2108.0	2045.8
17.95	2100.0	2045.2
17.96	2113.0	2044.7
17.97	2131.0	2044.1
17.98	2129.0	2043.5
17.99	2099.0	2042.9
18.0	2084.0	2042.3
18.01	2100.0	2041.7
18.02	2105.0	2041.2
18.03	2114.0	2040.6
18.04	2105.0	2040.0
18.05	2056.0	2039.4
18.06	2059.0	2038.8
18.07	2111.0	2038.2
18.08	2153.0	2037.6
18.09	2149.0	2037.0
18.1	2098.0	2036.4
18.11	2078.0	2035.8
18.12	2099.0	2035.2
18.13	2077.0	2034.6
18.14	2042.0	2034.0
18.15	2047.0	2033.4
18.16	2043.0	2032.8
18.17	2026.0	2032.2
18.18	2042.0	2031.6
18.19	2055.0	2031.0
18.2	2033.0	2030.4
18.21	2041.0	2029.7
18.22	2062.0	2029.1
18.23	2090.0	2028.5
18.24	2079.0	2027.9
18.25	2071.0	2027.3
18.26	2085.0	2026.7
18.27	2094.0	2026.1
18.28	2095.0	2025.4
18.29	2112.0	2024.8
18.3	2120.0	2024.2
18.31	2070.0	2023.6
18.32	2029.0	2022.9
18.33	2051.0	2022.3
18.34	2102.0	2021.7
18.35	2111.0	2021.1
18.36	2082.0	2020.4
18.37	2039.0	2019.8
18.38	2034.0	2019.2
18.39	2087.0	2018.5
18.4	2096.0	2017.9
18.41	2055.0	2017.3
18.42	2051.0	2016.6
18.43	2060.0	2016.0
18.44	2078.0	2015.4
18.45	2089.0	2014.7
18.46	2087.0	2014.1
18.47	2102.0	2013.5
18.48	2097.0	2012.8
18.49	2105.0	2012.2
18.5	2109.0	2011.5
18.51	2118.0	2010.9
18.52	2132.0	2010.2
18.53	2095.0	2009.6
18.54	2039.0	2009.0
18.55	2047.0	2008.3
18.56	2055.0	2007.7
18.57	2065.0	2007.0
18.58	2057.0	2006.4
18.59	2036.0	2005.7
18.6	2060.0	2005.1
18.61	2062.0	2004.4
18.62	2039.0	2003.7
18.63	2022.0	2003.1
18.64	2038.0	2002.4
18.65	2057.0	2001.8
18.66	2045.0	2001.1
18.67	2035.0	2000.5
18.68	1994.0	1999.8
18.69	1984.0	1999.1
18.7	2024.0	1998.5
18.71	2058.0	1997.8
18.72	2074.0	1997.2
18.73	2062.0	1996.5
18.74	2036.0	1995.8
18.75	2055.0	1995.2
18.76	2049.0	1994.5
18.77	2030.0	1993.8
18.78	2041.0	1993.2
18.79	2031.0	1992.5
18.8	2017.0	1991.8
18.81	2019.0	1991.2
18.82	2042.0	1990.5
18.83	2038.0	1989.8
18.84	2033.0	1989.1
18.85	2033.0	1988.5
18.86	2052.0	1987.8
18.87	2033.0	1987.1
18.88	2015.0	1986.4
18.89	2009.0	1985.8
18.9	2006.0	1985.1
18.91	2012.0	1984.4
18.92	2015.0	1983.7
18.93	2019.0	1983.1
18.94	2014.0	1982.4
18.95	2039.0	1981.7
18.96	2083.0	1981.0
18.97	2025.0	1980.3
18.98	1998.0	1979.7
18.99	2009.0	1979.0
19.0	2015.0	1978.3
19.01	2027.0	1977.6
19.02	1996.0	1976.9
19.03	1978.0	1976.2
19.04	2015.0	1975.6
19.05	2057.0	1974.9
19.06	2058.0	1974.2
19.07	2045.0	1973.5
19.08	2033.0	1972.8
19.09	2030.0	1972.1
19.1	2044.0	1971.4
19.11	2015.0	1970.7
19.12	2000.0	1970.0
19.13	2000.0	1969.4
19.14	2014.0	1968.7
19.15	2017.0	1968.0
19.16	1988.0	1967.3
19.17	1974.0	1966.6
19.18	2022.0	1965.9
19.19	2002.0	1965.2
19.2	1990.0	1964.5
19.21	2040.0	1963.8
19.22	2050.0	1963.1
19.23	2037.0	1962.4
19.24	1991.0	1961.7
19.25	1960.0	1961.0
19.26	1994.0	1960.3
19.27	1978.0	1959.6
19.28	2007.0	1958.9
19.29	2016.0	1958.2
19.3	1975.0	1957.5
19.31	1950.0	1956.8
19.32	1978.0	1956.1
19.33	1993.0	1955.4
19.34	1981.0	1954.7
19.35	1982.0	1954.0
19.36	2033.0	1953.3
19.37	2014.0	1952.6
19.38	1996.0	1951.9
19.39	2007.0	1951.2
19.4	2011.0	1950.5
19.41	2029.0	1949.8
19.42	2024.0	1949.1
19.43	2033.0	1948.4
19.44	1981.0	1947.7
19.45	1990.0	1947.0
19.46	1992.0	1946.3
19.47	1968.0	1945.6
19.48	1989.0	1944.9
19.49	1988.0	1944.2
19.5	1953.0	1943.4
19.51	1951.0	1942.7
19.52	1980.0	1942.0
19.53	1975.0	1941.3
19.54	1956.0	1940.6
19.55	1982.0	1939.9
19.56	1993.0	1939.2
19.57	1983.0	1938.5
19.58	1983.0	1937.8
19.59	2001.0	1937.1
19.6	2005.0	1936.4
19.61	1993.0	1935.6
19.62	1949.0	1934.9
19.63	1924.0	1934.2
19.64	1954.0	1933.5
19.65	1998.0	1932.8
19.66	1969.0	1932.1
19.67	1923.0	1931.4
19.68	1931.0	1930.7
19.69	1945.0	1930.0
19.7	1942.0	1929.2
19.71	1970.0	1928.5
19.72	1979.0	1927.8
19.73	1980.0	1927.1
19.74	1974.0	1926.4
19.75	1956.0	1925.7
19.76	1945.0	1925.0
19.77	1950.0	1924.3
19.78	1916.0	1923.5
19.79	1907.0	1922.8
19.8	1941.0	1922.1
19.81	1933.0	1921.4
19.82	1969.0	1920.7
19.83	2002.0	1920.0
19.84	2042.0	1919.3
19.85	1980.0	1918.6
19.86	1925.0	1917.8
19.87	1951.0	1917.1
19.88	1939.0	1916.4
19.89	1985.0	1915.7
19.9	1990.0	1915.0
19.91	1981.0	1914.3
19.92	1988.0	1913.6
19.93	1932.0	1912.8
19.94	1943.0	1912.1
19.95	1940.0	1911.4
19.96	1960.0	1910.7
19.97	1956.0	1910.0
19.98	1956.0	1909.3
19.99	1906.0	1908.6
20.0	1871.0	1907.8
