BroadPeak_MnO2_SPEX6
Wavelength = 1.54059 Ã… (Cu)
10.0	2069.0
10.01	2093.0
10.02	2122.0
10.03	2146.0
10.04	2169.0
10.05	2208.0
10.06	2161.0
10.07	2131.0
10.08	2197.0
10.09	2175.0
10.1	2163.0
10.11	2158.0
10.12	2168.0
10.13	2182.0
10.14	2162.0
10.15	2166.0
10.16	2137.0
10.17	2126.0
10.18	2124.0
10.19	2138.0
10.2	2181.0
10.21	2185.0
10.22	2191.0
10.23	2212.0
10.24	2176.0
10.25	2174.0
10.26	2133.0
10.27	2154.0
10.28	2179.0
10.29	2155.0
10.3	2102.0
10.31	2173.0
10.32	2171.0
10.33	2184.0
10.34	2138.0
10.35	2189.0
10.36	2185.0
10.37	2152.0
10.38	2193.0
10.39	2201.0
10.4	2200.0
10.41	2216.0
10.42	2204.0
10.43	2212.0
10.44	2224.0
10.45	2218.0
10.46	2199.0
10.47	2175.0
10.48	2202.0
10.49	2196.0
10.5	2212.0
10.51	2191.0
10.52	2224.0
10.53	2125.0
10.54	2182.0
10.55	2236.0
10.56	2195.0
10.57	2150.0
10.58	2205.0
10.59	2181.0
10.6	2189.0
10.61	2213.0
10.62	2227.0
10.63	2277.0
10.64	2220.0
10.65	2223.0
10.66	2252.0
10.67	2239.0
10.68	2273.0
10.69	2220.0
10.7	2220.0
10.71	2244.0
10.72	2306.0
10.73	2239.0
10.74	2248.0
10.75	2266.0
10.76	2212.0
10.77	2242.0
10.78	2233.0
10.79	2218.0
10.8	2261.0
10.81	2298.0
10.82	2268.0
10.83	2222.0
10.84	2258.0
10.85	2216.0
10.86	2215.0
10.87	2286.0
10.88	2329.0
10.89	2276.0
10.9	2268.0
10.91	2296.0
10.92	2279.0
10.93	2261.0
10.94	2309.0
10.95	2287.0
10.96	2219.0
10.97	2278.0
10.98	2261.0
10.99	2290.0
11.0	2265.0
11.01	2309.0
11.02	2295.0
11.03	2279.0
11.04	2253.0
11.05	2259.0
11.06	2237.0
11.07	2193.0
11.08	2246.0
11.09	2311.0
11.1	2271.0
11.11	2262.0
11.12	2351.0
11.13	2305.0
11.14	2286.0
11.15	2312.0
11.16	2311.0
11.17	2329.0
11.18	2247.0
11.19	2277.0
11.2	2286.0
11.21	2321.0
11.22	2311.0
11.23	2339.0
11.24	2354.0
11.25	2280.0
11.26	2318.0
11.27	2308.0
11.28	2270.0
11.29	2282.0
11.3	2329.0
11.31	2313.0
11.32	2330.0
11.33	2336.0
11.34	2283.0
11.35	2292.0
11.36	2305.0
11.37	2317.0
11.38	2357.0
11.39	2331.0
11.4	2367.0
11.41	2289.0
11.42	2319.0
11.43	2298.0
11.44	2338.0
11.45	2363.0
11.46	2362.0
11.47	2376.0
11.48	2388.0
11.49	2399.0
11.5	2345.0
11.51	2341.0
11.52	2278.0
11.53	2301.0
11.54	2379.0
11.55	2394.0
11.56	2412.0
11.57	2388.0
11.58	2328.0
11.59	2336.0
11.6	2294.0
11.61	2337.0
11.62	2378.0
11.63	2269.0
11.64	2265.0
11.65	2308.0
11.66	2317.0
11.67	2302.0
11.68	2365.0
11.69	2399.0
11.7	2365.0
11.71	2374.0
11.72	2361.0
11.73	2358.0
11.74	2389.0
11.75	2360.0
11.76	2365.0
11.77	2417.0
11.78	2416.0
11.79	2407.0
11.8	2280.0
11.81	2370.0
11.82	2418.0
11.83	2389.0
11.84	2388.0
11.85	2428.0
11.86	2424.0
11.87	2396.0
11.88	2417.0
11.89	2353.0
11.9	2283.0
11.91	2325.0
11.92	2403.0
11.93	2454.0
11.94	2368.0
11.95	2281.0
11.96	2391.0
11.97	2369.0
11.98	2351.0
11.99	2449.0
12.0	2402.0
12.01	2400.0
12.02	2435.0
12.03	2484.0
12.04	2368.0
12.05	2352.0
12.06	2431.0
12.07	2464.0
12.08	2493.0
12.09	2459.0
12.1	2382.0
12.11	2401.0
12.12	2413.0
12.13	2445.0
12.14	2487.0
12.15	2494.0
12.16	2486.0
12.17	2452.0
12.18	2436.0
12.19	2447.0
12.2	2507.0
12.21	2460.0
12.22	2409.0
12.23	2416.0
12.24	2398.0
12.25	2420.0
12.26	2465.0
12.27	2511.0
12.28	2505.0
12.29	2466.0
12.3	2454.0
12.31	2476.0
12.32	2505.0
12.33	2505.0
12.34	2441.0
12.35	2435.0
12.36	2415.0
12.37	2434.0
12.38	2492.0
12.39	2459.0
12.4	2438.0
12.41	2437.0
12.42	2456.0
12.43	2485.0
12.44	2487.0
12.45	2456.0
12.46	2453.0
12.47	2525.0
12.48	2506.0
12.49	2439.0
12.5	2442.0
12.51	2449.0
12.52	2429.0
12.53	2479.0
12.54	2503.0
12.55	2477.0
12.56	2472.0
12.57	2485.0
12.58	2479.0
12.59	2504.0
12.6	2505.0
12.61	2458.0
12.62	2457.0
12.63	2436.0
12.64	2441.0
12.65	2486.0
12.66	2514.0
12.67	2503.0
12.68	2532.0
12.69	2527.0
12.7	2508.0
12.71	2469.0
12.72	2478.0
12.73	2575.0
12.74	2583.0
12.75	2532.0
12.76	2549.0
12.77	2499.0
12.78	2473.0
12.79	2486.0
12.8	2494.0
12.81	2496.0
12.82	2583.0
12.83	2545.0
12.84	2573.0
12.85	2552.0
12.86	2582.0
12.87	2591.0
12.88	2537.0
12.89	2498.0
12.9	2544.0
12.91	2568.0
12.92	2564.0
12.93	2517.0
12.94	2511.0
12.95	2524.0
12.96	2537.0
12.97	2556.0
12.98	2561.0
12.99	2562.0
13.0	2571.0
13.01	2578.0
13.02	2568.0
13.03	2554.0
13.04	2504.0
13.05	2563.0
13.06	2627.0
13.07	2534.0
13.08	2567.0
13.09	2590.0
13.1	2652.0
13.11	2631.0
13.12	2547.0
13.13	2586.0
13.14	2627.0
13.15	2579.0
13.16	2565.0
13.17	2592.0
13.18	2626.0
13.19	2625.0
13.2	2613.0
13.21	2610.0
13.22	2595.0
13.23	2535.0
13.24	2599.0
13.25	2620.0
13.26	2577.0
13.27	2600.0
13.28	2596.0
13.29	2628.0
13.3	2641.0
13.31	2632.0
13.32	2587.0
13.33	2587.0
13.34	2635.0
13.35	2601.0
13.36	2612.0
13.37	2623.0
13.38	2596.0
13.39	2589.0
13.4	2581.0
13.41	2588.0
13.42	2563.0
13.43	2617.0
13.44	2670.0
13.45	2650.0
13.46	2648.0
13.47	2661.0
13.48	2620.0
13.49	2642.0
13.5	2589.0
13.51	2616.0
13.52	2621.0
13.53	2606.0
13.54	2657.0
13.55	2666.0
13.56	2643.0
13.57	2655.0
13.58	2664.0
13.59	2607.0
13.6	2608.0
13.61	2649.0
13.62	2660.0
13.63	2673.0
13.64	2677.0
13.65	2679.0
13.66	2706.0
13.67	2657.0
13.68	2623.0
13.69	2635.0
13.7	2698.0
13.71	2654.0
13.72	2682.0
13.73	2680.0
13.74	2658.0
13.75	2699.0
13.76	2644.0
13.77	2675.0
13.78	2658.0
13.79	2613.0
13.8	2615.0
13.81	2649.0
13.82	2697.0
13.83	2725.0
13.84	2731.0
13.85	2686.0
13.86	2661.0
13.87	2638.0
13.88	2675.0
13.89	2711.0
13.9	2716.0
13.91	2726.0
13.92	2706.0
13.93	2698.0
13.94	2707.0
13.95	2728.0
13.96	2746.0
13.97	2751.0
13.98	2711.0
13.99	2697.0
14.0	2708.0
14.01	2723.0
14.02	2682.0
14.03	2659.0
14.04	2651.0
14.05	2641.0
14.06	2679.0
14.07	2700.0
14.08	2649.0
14.09	2755.0
14.1	2797.0
14.11	2729.0
14.12	2715.0
14.13	2743.0
14.14	2746.0
14.15	2743.0
14.16	2682.0
14.17	2679.0
14.18	2701.0
14.19	2733.0
14.2	2777.0
14.21	2769.0
14.22	2737.0
14.23	2785.0
14.24	2780.0
14.25	2739.0
14.26	2725.0
14.27	2634.0
14.28	2636.0
14.29	2735.0
14.3	2743.0
14.31	2691.0
14.32	2665.0
14.33	2695.0
14.34	2720.0
14.35	2683.0
14.36	2715.0
14.37	2751.0
14.38	2739.0
14.39	2727.0
14.4	2756.0
14.41	2768.0
14.42	2751.0
14.43	2709.0
14.44	2726.0
14.45	2726.0
14.46	2754.0
14.47	2739.0
14.48	2711.0
14.49	2696.0
14.5	2758.0
14.51	2750.0
14.52	2775.0
14.53	2789.0
14.54	2714.0
14.55	2687.0
14.56	2731.0
14.57	2777.0
14.58	2719.0
14.59	2742.0
14.6	2787.0
14.61	2762.0
14.62	2742.0
14.63	2706.0
14.64	2663.0
14.65	2634.0
14.66	2674.0
14.67	2749.0
14.68	2740.0
14.69	2691.0
14.7	2722.0
14.71	2700.0
14.72	2740.0
14.73	2745.0
14.74	2750.0
14.75	2739.0
14.76	2699.0
14.77	2713.0
14.78	2741.0
14.79	2714.0
14.8	2703.0
14.81	2700.0
14.82	2702.0
14.83	2688.0
14.84	2687.0
14.85	2710.0
14.86	2697.0
14.87	2671.0
14.88	2694.0
14.89	2718.0
14.9	2763.0
14.91	2770.0
14.92	2750.0
14.93	2706.0
14.94	2647.0
14.95	2687.0
14.96	2670.0
14.97	2682.0
14.98	2743.0
14.99	2726.0
15.0	2697.0
15.01	2746.0
15.02	2791.0
15.03	2735.0
15.04	2698.0
15.05	2680.0
15.06	2705.0
15.07	2756.0
15.08	2728.0
15.09	2689.0
15.1	2749.0
15.11	2799.0
15.12	2792.0
15.13	2707.0
15.14	2702.0
15.15	2695.0
15.16	2703.0
15.17	2742.0
15.18	2766.0
15.19	2741.0
15.2	2750.0
15.21	2763.0
15.22	2715.0
15.23	2716.0
15.24	2690.0
15.25	2666.0
15.26	2700.0
15.27	2716.0
15.28	2670.0
15.29	2643.0
15.3	2688.0
15.31	2761.0
15.32	2768.0
15.33	2708.0
15.34	2682.0
15.35	2708.0
15.36	2724.0
15.37	2743.0
15.38	2744.0
15.39	2689.0
15.4	2706.0
15.41	2718.0
15.42	2750.0
15.43	2667.0
15.44	2605.0
15.45	2596.0
15.46	2653.0
15.47	2704.0
15.48	2699.0
15.49	2684.0
15.5	2682.0
15.51	2667.0
15.52	2696.0
15.53	2741.0
15.54	2686.0
15.55	2614.0
15.56	2634.0
15.57	2699.0
15.58	2694.0
15.59	2676.0
15.6	2714.0
15.61	2695.0
15.62	2680.0
15.63	2714.0
15.64	2703.0
15.65	2702.0
15.66	2708.0
15.67	2697.0
15.68	2697.0
15.69	2708.0
15.7	2709.0
15.71	2729.0
15.72	2737.0
15.73	2725.0
15.74	2729.0
15.75	2698.0
15.76	2688.0
15.77	2709.0
15.78	2727.0
15.79	2689.0
15.8	2638.0
15.81	2646.0
15.82	2649.0
15.83	2692.0
15.84	2709.0
15.85	2682.0
15.86	2684.0
15.87	2663.0
15.88	2689.0
15.89	2714.0
15.9	2720.0
15.91	2729.0
15.92	2729.0
15.93	2717.0
15.94	2714.0
15.95	2720.0
15.96	2699.0
15.97	2684.0
15.98	2693.0
15.99	2723.0
16.0	2682.0
16.01	2673.0
16.02	2685.0
16.03	2714.0
16.04	2701.0
16.05	2726.0
16.06	2677.0
16.07	2659.0
16.08	2670.0
16.09	2693.0
16.1	2679.0
16.11	2661.0
16.12	2670.0
16.13	2693.0
16.14	2701.0
16.15	2686.0
16.16	2672.0
16.17	2667.0
16.18	2659.0
16.19	2677.0
16.2	2665.0
16.21	2664.0
16.22	2685.0
16.23	2636.0
16.24	2596.0
16.25	2613.0
16.26	2700.0
16.27	2724.0
16.28	2687.0
16.29	2649.0
16.3	2654.0
16.31	2668.0
16.32	2645.0
16.33	2662.0
16.34	2691.0
16.35	2677.0
16.36	2636.0
16.37	2638.0
16.38	2675.0
16.39	2691.0
16.4	2686.0
16.41	2673.0
16.42	2619.0
16.43	2601.0
16.44	2615.0
16.45	2637.0
16.46	2654.0
16.47	2642.0
16.48	2673.0
16.49	2705.0
16.5	2673.0
16.51	2643.0
16.52	2641.0
16.53	2650.0
16.54	2648.0
16.55	2657.0
16.56	2653.0
16.57	2644.0
16.58	2669.0
16.59	2712.0
16.6	2673.0
16.61	2619.0
16.62	2643.0
16.63	2633.0
16.64	2642.0
16.65	2692.0
16.66	2679.0
16.67	2684.0
16.68	2723.0
16.69	2722.0
16.7	2709.0
16.71	2629.0
16.72	2604.0
16.73	2654.0
16.74	2682.0
16.75	2649.0
16.76	2626.0
16.77	2638.0
16.78	2675.0
16.79	2685.0
16.8	2683.0
16.81	2687.0
16.82	2698.0
16.83	2693.0
16.84	2655.0
16.85	2658.0
16.86	2671.0
16.87	2657.0
16.88	2635.0
16.89	2627.0
16.9	2659.0
16.91	2662.0
16.92	2650.0
16.93	2676.0
16.94	2682.0
16.95	2669.0
16.96	2671.0
16.97	2643.0
16.98	2644.0
16.99	2670.0
17.0	2655.0
17.01	2626.0
17.02	2620.0
17.03	2619.0
17.04	2631.0
17.05	2617.0
17.06	2610.0
17.07	2638.0
17.08	2666.0
17.09	2690.0
17.1	2700.0
17.11	2665.0
17.12	2626.0
17.13	2645.0
17.14	2664.0
17.15	2653.0
17.16	2625.0
17.17	2623.0
17.18	2639.0
17.19	2626.0
17.2	2619.0
17.21	2653.0
17.22	2660.0
17.23	2613.0
17.24	2595.0
17.25	2628.0
17.26	2627.0
17.27	2642.0
17.28	2682.0
17.29	2702.0
17.3	2697.0
17.31	2688.0
17.32	2685.0
17.33	2630.0
17.34	2594.0
17.35	2613.0
17.36	2640.0
17.37	2624.0
17.38	2579.0
17.39	2611.0
17.4	2634.0
17.41	2621.0
17.42	2645.0
17.43	2672.0
17.44	2669.0
17.45	2649.0
17.46	2651.0
17.47	2640.0
17.48	2611.0
17.49	2589.0
17.5	2596.0
17.51	2659.0
17.52	2735.0
17.53	2671.0
17.54	2561.0
17.55	2580.0
17.56	2620.0
17.57	2636.0
17.58	2634.0
17.59	2652.0
17.6	2686.0
17.61	2681.0
17.62	2643.0
17.63	2613.0
17.64	2617.0
17.65	2616.0
17.66	2606.0
17.67	2606.0
17.68	2620.0
17.69	2610.0
17.7	2594.0
17.71	2620.0
17.72	2617.0
17.73	2580.0
17.74	2597.0
17.75	2638.0
17.76	2615.0
17.77	2583.0
17.78	2593.0
17.79	2591.0
17.8	2587.0
17.81	2603.0
17.82	2605.0
17.83	2585.0
17.84	2619.0
17.85	2672.0
17.86	2657.0
17.87	2605.0
17.88	2569.0
17.89	2569.0
17.9	2582.0
17.91	2596.0
17.92	2610.0
17.93	2590.0
17.94	2563.0
17.95	2599.0
17.96	2638.0
17.97	2603.0
17.98	2585.0
17.99	2578.0
18.0	2515.0
18.01	2531.0
18.02	2580.0
18.03	2603.0
18.04	2604.0
18.05	2609.0
18.06	2591.0
18.07	2556.0
18.08	2561.0
18.09	2569.0
18.1	2588.0
18.11	2614.0
18.12	2594.0
18.13	2571.0
18.14	2571.0
18.15	2590.0
18.16	2608.0
18.17	2615.0
18.18	2598.0
18.19	2590.0
18.2	2594.0
18.21	2553.0
18.22	2497.0
18.23	2484.0
18.24	2540.0
18.25	2567.0
18.26	2574.0
18.27	2604.0
18.28	2615.0
18.29	2622.0
18.3	2627.0
18.31	2579.0
18.32	2580.0
18.33	2614.0
18.34	2596.0
18.35	2606.0
18.36	2627.0
18.37	2565.0
18.38	2554.0
18.39	2597.0
18.4	2612.0
18.41	2596.0
18.42	2622.0
18.43	2610.0
18.44	2575.0
18.45	2598.0
18.46	2600.0
18.47	2555.0
18.48	2543.0
18.49	2572.0
18.5	2592.0
18.51	2579.0
18.52	2522.0
18.53	2494.0
18.54	2537.0
18.55	2554.0
18.56	2526.0
18.57	2532.0
18.58	2544.0
18.59	2525.0
18.6	2548.0
18.61	2576.0
18.62	2568.0
18.63	2585.0
18.64	2601.0
18.65	2586.0
18.66	2586.0
18.67	2605.0
18.68	2611.0
18.69	2561.0
18.7	2534.0
18.71	2546.0
18.72	2559.0
18.73	2548.0
18.74	2572.0
18.75	2574.0
18.76	2527.0
18.77	2561.0
18.78	2581.0
18.79	2575.0
18.8	2574.0
18.81	2579.0
18.82	2598.0
18.83	2633.0
18.84	2601.0
18.85	2566.0
18.86	2536.0
18.87	2551.0
18.88	2560.0
18.89	2570.0
18.9	2563.0
18.91	2562.0
18.92	2566.0
18.93	2585.0
18.94	2598.0
18.95	2555.0
18.96	2520.0
18.97	2535.0
18.98	2513.0
18.99	2510.0
19.0	2557.0
19.01	2565.0
19.02	2569.0
19.03	2568.0
19.04	2564.0
19.05	2523.0
19.06	2466.0
19.07	2455.0
19.08	2515.0
19.09	2533.0
19.1	2502.0
19.11	2444.0
19.12	2484.0
19.13	2527.0
19.14	2495.0
19.15	2484.0
19.16	2506.0
19.17	2543.0
19.18	2528.0
19.19	2553.0
19.2	2567.0
19.21	2531.0
19.22	2498.0
19.23	2495.0
19.24	2515.0
19.25	2526.0
19.26	2522.0
19.27	2503.0
19.28	2477.0
19.29	2460.0
19.3	2506.0
19.31	2564.0
19.32	2582.0
19.33	2512.0
19.34	2489.0
19.35	2488.0
19.36	2469.0
19.37	2504.0
19.38	2526.0
19.39	2531.0
19.4	2527.0
19.41	2538.0
19.42	2533.0
19.43	2504.0
19.44	2500.0
19.45	2485.0
19.46	2488.0
19.47	2523.0
19.48	2468.0
19.49	2447.0
19.5	2464.0
19.51	2486.0
19.52	2488.0
19.53	2492.0
19.54	2494.0
19.55	2505.0
19.56	2490.0
19.57	2457.0
19.58	2447.0
19.59	2482.0
19.6	2533.0
19.61	2486.0
19.62	2476.0
19.63	2490.0
19.64	2463.0
19.65	2414.0
19.66	2441.0
19.67	2471.0
19.68	2465.0
19.69	2457.0
19.7	2496.0
19.71	2522.0
19.72	2514.0
19.73	2487.0
19.74	2474.0
19.75	2499.0
19.76	2476.0
19.77	2463.0
19.78	2506.0
19.79	2504.0
19.8	2458.0
19.81	2457.0
19.82	2478.0
19.83	2440.0
19.84	2432.0
19.85	2488.0
19.86	2489.0
19.87	2460.0
19.88	2433.0
19.89	2430.0
19.9	2471.0
19.91	2473.0
19.92	2495.0
19.93	2463.0
19.94	2442.0
19.95	2465.0
19.96	2443.0
19.97	2442.0
19.98	2459.0
19.99	2455.0
20.0	2407.0
20.01	2420.0
20.02	2441.0
20.03	2441.0
20.04	2414.0
20.05	2484.0
20.06	2450.0
20.07	2442.0
20.08	2460.0
20.09	2468.0
20.1	2462.0
20.11	2459.0
20.12	2492.0
20.13	2446.0
20.14	2444.0
20.15	2434.0
20.16	2414.0
20.17	2419.0
20.18	2431.0
20.19	2445.0
20.2	2446.0
20.21	2433.0
20.22	2457.0
20.23	2437.0
20.24	2425.0
20.25	2421.0
20.26	2432.0
20.27	2439.0
20.28	2457.0
20.29	2412.0
20.3	2411.0
20.31	2417.0
20.32	2402.0
20.33	2439.0
20.34	2417.0
20.35	2414.0
20.36	2379.0
20.37	2385.0
20.38	2411.0
20.39	2420.0
20.4	2395.0
20.41	2365.0
20.42	2405.0
20.43	2472.0
20.44	2404.0
20.45	2394.0
20.46	2414.0
20.47	2460.0
20.48	2457.0
20.49	2465.0
20.5	2442.0
20.51	2445.0
20.52	2370.0
20.53	2380.0
20.54	2353.0
20.55	2333.0
20.56	2374.0
20.57	2413.0
20.58	2422.0
20.59	2398.0
20.6	2402.0
20.61	2430.0
20.62	2416.0
20.63	2371.0
20.64	2364.0
20.65	2410.0
20.66	2421.0
20.67	2410.0
20.68	2420.0
20.69	2403.0
20.7	2437.0
20.71	2418.0
20.72	2376.0
20.73	2419.0
20.74	2402.0
20.75	2337.0
20.76	2323.0
20.77	2349.0
20.78	2386.0
20.79	2389.0
20.8	2389.0
20.81	2415.0
20.82	2361.0
20.83	2349.0
20.84	2346.0
20.85	2331.0
20.86	2335.0
20.87	2390.0
20.88	2427.0
20.89	2444.0
20.9	2446.0
20.91	2409.0
20.92	2379.0
20.93	2371.0
20.94	2373.0
20.95	2349.0
20.96	2409.0
20.97	2416.0
20.98	2371.0
20.99	2386.0
21.0	2401.0
21.01	2381.0
21.02	2382.0
21.03	2358.0
21.04	2330.0
21.05	2366.0
21.06	2415.0
21.07	2382.0
21.08	2355.0
21.09	2329.0
21.1	2372.0
21.11	2330.0
21.12	2437.0
21.13	2377.0
21.14	2364.0
21.15	2294.0
21.16	2322.0
21.17	2367.0
21.18	2357.0
21.19	2351.0
21.2	2364.0
21.21	2325.0
21.22	2358.0
21.23	2397.0
21.24	2419.0
21.25	2424.0
21.26	2413.0
21.27	2363.0
21.28	2347.0
21.29	2290.0
21.3	2260.0
21.31	2330.0
21.32	2382.0
21.33	2369.0
21.34	2384.0
21.35	2365.0
21.36	2347.0
21.37	2306.0
21.38	2284.0
21.39	2290.0
21.4	2334.0
21.41	2354.0
21.42	2326.0
21.43	2386.0
21.44	2382.0
21.45	2331.0
21.46	2309.0
21.47	2300.0
21.48	2268.0
21.49	2307.0
21.5	2286.0
21.51	2261.0
21.52	2307.0
21.53	2349.0
21.54	2348.0
21.55	2317.0
21.56	2297.0
21.57	2295.0
21.58	2301.0
21.59	2239.0
21.6	2266.0
21.61	2338.0
21.62	2322.0
21.63	2297.0
21.64	2348.0
21.65	2362.0
21.66	2327.0
21.67	2291.0
21.68	2261.0
21.69	2313.0
21.7	2312.0
21.71	2324.0
21.72	2339.0
21.73	2344.0
21.74	2355.0
21.75	2319.0
21.76	2351.0
21.77	2314.0
21.78	2302.0
21.79	2306.0
21.8	2316.0
21.81	2270.0
21.82	2231.0
21.83	2228.0
21.84	2283.0
21.85	2274.0
21.86	2333.0
21.87	2339.0
21.88	2331.0
21.89	2303.0
21.9	2233.0
21.91	2225.0
21.92	2179.0
21.93	2233.0
21.94	2302.0
21.95	2288.0
21.96	2285.0
21.97	2279.0
21.98	2243.0
21.99	2317.0
22.0	2341.0
22.01	2343.0
22.02	2328.0
22.03	2227.0
22.04	2284.0
22.05	2299.0
22.06	2325.0
22.07	2332.0
22.08	2316.0
22.09	2310.0
22.1	2319.0
22.11	2343.0
22.12	2364.0
22.13	2327.0
22.14	2257.0
22.15	2233.0
22.16	2354.0
22.17	2232.0
22.18	2285.0
22.19	2312.0
22.2	2324.0
22.21	2278.0
22.22	2306.0
22.23	2301.0
22.24	2258.0
22.25	2271.0
22.26	2253.0
22.27	2263.0
22.28	2226.0
22.29	2256.0
22.3	2291.0
22.31	2244.0
22.32	2261.0
22.33	2260.0
22.34	2284.0
22.35	2282.0
22.36	2276.0
22.37	2288.0
22.38	2202.0
22.39	2310.0
22.4	2229.0
22.41	2232.0
22.42	2310.0
22.43	2329.0
22.44	2315.0
22.45	2238.0
22.46	2218.0
22.47	2212.0
22.48	2272.0
22.49	2275.0
22.5	2199.0
22.51	2256.0
22.52	2249.0
22.53	2223.0
22.54	2276.0
22.55	2271.0
22.56	2248.0
22.57	2194.0
22.58	2201.0
22.59	2239.0
22.6	2249.0
22.61	2277.0
22.62	2216.0
22.63	2224.0
22.64	2242.0
22.65	2248.0
22.66	2195.0
22.67	2210.0
22.68	2207.0
22.69	2228.0
22.7	2232.0
22.71	2262.0
22.72	2205.0
22.73	2214.0
22.74	2248.0
22.75	2251.0
22.76	2197.0
22.77	2245.0
22.78	2262.0
22.79	2305.0
22.8	2239.0
22.81	2307.0
22.82	2242.0
22.83	2237.0
22.84	2265.0
22.85	2242.0
22.86	2251.0
22.87	2270.0
22.88	2268.0
22.89	2251.0
22.9	2312.0
22.91	2242.0
22.92	2241.0
22.93	2301.0
22.94	2287.0
22.95	2274.0
22.96	2257.0
22.97	2290.0
22.98	2249.0
22.99	2267.0
23.0	2239.0
23.01	2249.0
23.02	2258.0
23.03	2263.0
23.04	2274.0
23.05	2273.0
23.06	2286.0
23.07	2280.0
23.08	2280.0
23.09	2285.0
23.1	2277.0
23.11	2266.0
23.12	2243.0
23.13	2217.0
23.14	2260.0
23.15	2253.0
23.16	2225.0
23.17	2246.0
23.18	2205.0
23.19	2223.0
23.2	2230.0
23.21	2188.0
23.22	2231.0
23.23	2289.0
23.24	2268.0
23.25	2261.0
23.26	2258.0
23.27	2200.0
23.28	2156.0
23.29	2209.0
23.3	2242.0
23.31	2190.0
23.32	2225.0
23.33	2261.0
23.34	2271.0
23.35	2231.0
23.36	2227.0
23.37	2240.0
23.38	2226.0
23.39	2230.0
23.4	2205.0
23.41	2270.0
23.42	2259.0
23.43	2194.0
23.44	2191.0
23.45	2228.0
23.46	2183.0
23.47	2184.0
23.48	2199.0
23.49	2236.0
23.5	2270.0
23.51	2217.0
23.52	2247.0
23.53	2210.0
23.54	2178.0
23.55	2188.0
23.56	2192.0
23.57	2207.0
23.58	2196.0
23.59	2179.0
23.6	2176.0
23.61	2189.0
23.62	2207.0
23.63	2171.0
23.64	2175.0
23.65	2148.0
23.66	2179.0
23.67	2175.0
23.68	2180.0
23.69	2186.0
23.7	2198.0
23.71	2194.0
23.72	2183.0
23.73	2193.0
23.74	2163.0
23.75	2192.0
23.76	2176.0
23.77	2156.0
23.78	2130.0
23.79	2144.0
23.8	2176.0
23.81	2182.0
23.82	2205.0
23.83	2181.0
23.84	2104.0
23.85	2147.0
23.86	2158.0
23.87	2207.0
23.88	2149.0
23.89	2110.0
23.9	2139.0
23.91	2167.0
23.92	2158.0
23.93	2174.0
23.94	2215.0
23.95	2206.0
23.96	2207.0
23.97	2176.0
23.98	2177.0
23.99	2135.0
24.0	2161.0
24.01	2193.0
24.02	2175.0
24.03	2221.0
24.04	2172.0
24.05	2139.0
24.06	2159.0
24.07	2158.0
24.08	2186.0
24.09	2152.0
24.1	2127.0
24.11	2146.0
24.12	2127.0
24.13	2133.0
24.14	2141.0
24.15	2136.0
24.16	2157.0
24.17	2122.0
24.18	2156.0
24.19	2207.0
24.2	2191.0
24.21	2142.0
24.22	2103.0
24.23	2117.0
24.24	2163.0
24.25	2196.0
24.26	2173.0
24.27	2125.0
24.28	2145.0
24.29	2140.0
24.3	2113.0
24.31	2134.0
24.32	2137.0
24.33	2142.0
24.34	2167.0
24.35	2172.0
24.36	2127.0
24.37	2100.0
24.38	2118.0
24.39	2148.0
24.4	2131.0
24.41	2107.0
24.42	2100.0
24.43	2105.0
24.44	2125.0
24.45	2133.0
24.46	2128.0
24.47	2096.0
24.48	2144.0
24.49	2112.0
24.5	2142.0
24.51	2149.0
24.52	2179.0
24.53	2145.0
24.54	2175.0
24.55	2155.0
24.56	2111.0
24.57	2106.0
24.58	2147.0
24.59	2123.0
24.6	2146.0
24.61	2184.0
24.62	2161.0
24.63	2145.0
24.64	2166.0
24.65	2125.0
24.66	2107.0
24.67	2075.0
24.68	2131.0
24.69	2181.0
24.7	2132.0
24.71	2059.0
24.72	2108.0
24.73	2112.0
24.74	2114.0
24.75	2057.0
24.76	2048.0
24.77	2061.0
24.78	2105.0
24.79	2136.0
24.8	2139.0
24.81	2112.0
24.82	2086.0
24.83	2102.0
24.84	2070.0
24.85	2049.0
24.86	2060.0
24.87	2104.0
24.88	2167.0
24.89	2189.0
24.9	2137.0
24.91	2081.0
24.92	2111.0
24.93	2136.0
24.94	2126.0
24.95	2114.0
24.96	2121.0
24.97	2164.0
24.98	2106.0
24.99	2046.0
25.0	2085.0
25.01	2091.0
25.02	2100.0
25.03	2104.0
25.04	2142.0
25.05	2151.0
25.06	2074.0
25.07	2059.0
25.08	2063.0
25.09	2079.0
25.1	2119.0
25.11	2103.0
25.12	2068.0
25.13	2050.0
25.14	2073.0
25.15	2104.0
25.16	2111.0
25.17	2136.0
25.18	2080.0
25.19	2071.0
25.2	2112.0
25.21	2118.0
25.22	2100.0
25.23	2101.0
25.24	2089.0
25.25	2072.0
25.26	2081.0
25.27	2089.0
25.28	2118.0
25.29	2153.0
25.3	2111.0
25.31	2093.0
25.32	2108.0
25.33	2098.0
25.34	2122.0
25.35	2123.0
25.36	2110.0
25.37	2136.0
25.38	2081.0
25.39	2063.0
25.4	2070.0
25.41	2058.0
25.42	2098.0
25.43	2161.0
25.44	2164.0
25.45	2102.0
